# Wavelengths	Intensities
 178.16861	  14.33578
 178.38608	33963.51375
 178.60353	1427.43422
 178.82098	1443.81797
 179.03842	1404.90656
 179.25585	1470.44156
 179.47328	1431.53016
 179.69069	1492.96922
 179.90809	1419.24234
 180.12549	1515.49688
 180.34288	1458.15375
 180.56025	1435.62609
 180.77762	1460.20172
 180.99498	1390.57078
 181.21233	1402.85859
 181.42967	1417.19438
 181.64701	1460.20172
 181.86433	1406.95453
 182.08165	1400.81063
 182.29895	1363.94719
 182.51625	1409.00250
 182.73354	1431.53016
 182.95082	1415.14641
 183.16809	1398.76266
 183.38535	1464.29766
 183.60260	1452.00984
 183.81985	1488.87328
 184.03708	1359.85125
 184.25431	1433.57812
 184.47153	1460.20172
 184.68873	1417.19438
 184.90593	1449.96187
 185.12312	1380.33094
 185.34031	1441.77000
 185.55748	1427.43422
 185.77464	1417.19438
 185.99180	1474.53750
 186.20894	1460.20172
 186.42608	1441.77000
 186.64321	1402.85859
 186.86032	1474.53750
 187.07743	1441.77000
 187.29453	1413.09844
 187.51163	1425.38625
 187.72871	1527.78469
 187.94578	1443.81797
 188.16285	1482.72937
 188.37990	1355.75531
 188.59695	1378.28297
 188.81399	1421.29031
 189.03102	1384.42688
 189.24804	1466.34562
 189.46505	1427.43422
 189.68205	1374.18703
 189.89904	1488.87328
 190.11602	1458.15375
 190.33300	1361.89922
 190.54997	1429.48219
 190.76692	1445.86594
 190.98387	1427.43422
 191.20081	1449.96187
 191.41774	1425.38625
 191.63466	1454.05781
 191.85157	1507.30500
 192.06847	1519.59281
 192.28537	1388.52281
 192.50225	1398.76266
 192.71913	1363.94719
 192.93599	1409.00250
 193.15285	1406.95453
 193.36970	1447.91391
 193.58654	1417.19438
 193.80337	1411.05047
 194.02019	1447.91391
 194.23700	1484.77734
 194.45380	1439.72203
 194.67060	1490.92125
 194.88738	1431.53016
 195.10416	1452.00984
 195.32093	1382.37891
 195.53768	1474.53750
 195.75443	1378.28297
 195.97117	1400.81063
 196.18790	1361.89922
 196.40462	1470.44156
 196.62134	1462.24969
 196.83804	1423.33828
 197.05473	1390.57078
 197.27142	1460.20172
 197.48810	1470.44156
 197.70476	1478.63344
 197.92142	1443.81797
 198.13807	1478.63344
 198.35471	1482.72937
 198.57134	1472.48953
 198.78796	1443.81797
 199.00457	1443.81797
 199.22118	1478.63344
 199.43777	1443.81797
 199.65436	1396.71469
 199.87093	1507.30500
 200.08750	1429.48219
 200.30406	1411.05047
 200.52060	1409.00250
 200.73714	1445.86594
 200.95367	1400.81063
 201.17019	1433.57812
 201.38671	1449.96187
 201.60321	1320.93984
 201.81970	1437.67406
 202.03619	1460.20172
 202.25266	1372.13906
 202.46913	1513.44891
 202.68559	1390.57078
 202.90203	1421.29031
 203.11847	1449.96187
 203.33490	1384.42688
 203.55132	1445.86594
 203.76773	1423.33828
 203.98414	1365.99516
 204.20053	1449.96187
 204.41691	1404.90656
 204.63329	1447.91391
 204.84965	1427.43422
 205.06601	1478.63344
 205.28236	1464.29766
 205.49869	1507.30500
 205.71502	1439.72203
 205.93134	1464.29766
 206.14765	1427.43422
 206.36395	1425.38625
 206.58025	1452.00984
 206.79653	1419.24234
 207.01280	1454.05781
 207.22907	1468.39359
 207.44532	1454.05781
 207.66157	1380.33094
 207.87780	1415.14641
 208.09403	1398.76266
 208.31025	1337.32359
 208.52646	1409.00250
 208.74266	1409.00250
 208.95885	1431.53016
 209.17503	1417.19438
 209.39120	1439.72203
 209.60737	1400.81063
 209.82352	1449.96187
 210.03966	1361.89922
 210.25580	1484.77734
 210.47192	1376.23500
 210.68804	1445.86594
 210.90415	1404.90656
 211.12025	1454.05781
 211.33634	1515.49688
 211.55242	1482.72937
 211.76849	1411.05047
 211.98455	1447.91391
 212.20060	1370.09109
 212.41664	1411.05047
 212.63267	1398.76266
 212.84870	1507.30500
 213.06471	1419.24234
 213.28072	1382.37891
 213.49672	1419.24234
 213.71270	1413.09844
 213.92868	1415.14641
 214.14465	1492.96922
 214.36061	1343.46750
 214.57656	1452.00984
 214.79250	1472.48953
 215.00843	1497.06516
 215.22435	1411.05047
 215.44026	1431.53016
 215.65617	1443.81797
 215.87206	1380.33094
 216.08795	1382.37891
 216.30382	1361.89922
 216.51969	1447.91391
 216.73554	1406.95453
 216.95139	1429.48219
 217.16723	1365.99516
 217.38306	1347.56344
 217.59888	1378.28297
 217.81469	1429.48219
 218.03049	1458.15375
 218.24628	1409.00250
 218.46206	1425.38625
 218.67784	1380.33094
 218.89360	1390.57078
 219.10935	1482.72937
 219.32510	1478.63344
 219.54083	1435.62609
 219.75656	1382.37891
 219.97228	1433.57812
 220.18798	1486.82531
 220.40368	1413.09844
 220.61937	1443.81797
 220.83505	1394.66672
 221.05072	1337.32359
 221.26638	1402.85859
 221.48203	1378.28297
 221.69767	1454.05781
 221.91331	1376.23500
 222.12893	1384.42688
 222.34454	1445.86594
 222.56015	1503.20906
 222.77574	1480.68141
 222.99133	1470.44156
 223.20690	1431.53016
 223.42247	1406.95453
 223.63803	1411.05047
 223.85357	1417.19438
 224.06911	1388.52281
 224.28464	1406.95453
 224.50016	1499.11313
 224.71567	1404.90656
 224.93117	1394.66672
 225.14666	1427.43422
 225.36215	1529.83266
 225.57762	1409.00250
 225.79308	1435.62609
 226.00854	1431.53016
 226.22398	1439.72203
 226.43942	1404.90656
 226.65484	1421.29031
 226.87026	1413.09844
 227.08566	1419.24234
 227.30106	1443.81797
 227.51645	1421.29031
 227.73183	1402.85859
 227.94720	1417.19438
 228.16256	1456.10578
 228.37791	1452.00984
 228.59325	1388.52281
 228.80858	1466.34562
 229.02390	1390.57078
 229.23921	1376.23500
 229.45451	1404.90656
 229.66981	1458.15375
 229.88509	1497.06516
 230.10036	1472.48953
 230.31563	1425.38625
 230.53088	1382.37891
 230.74613	1435.62609
 230.96137	1447.91391
 231.17659	1429.48219
 231.39181	1507.30500
 231.60702	1431.53016
 231.82222	1452.00984
 232.03741	1390.57078
 232.25259	1443.81797
 232.46776	1411.05047
 232.68292	1458.15375
 232.89807	1411.05047
 233.11321	1435.62609
 233.32834	1462.24969
 233.54346	1476.58547
 233.75858	1456.10578
 233.97368	1415.14641
 234.18877	1474.53750
 234.40386	1468.39359
 234.61893	1427.43422
 234.83400	1456.10578
 235.04905	1482.72937
 235.26410	1423.33828
 235.47914	1449.96187
 235.69416	1335.27562
 235.90918	1415.14641
 236.12419	1376.23500
 236.33919	1435.62609
 236.55418	1466.34562
 236.76915	1452.00984
 236.98412	1419.24234
 237.19908	1454.05781
 237.41404	1435.62609
 237.62898	1417.19438
 237.84391	1400.81063
 238.05883	1406.95453
 238.27374	1437.67406
 238.48865	1478.63344
 238.70354	1431.53016
 238.91842	1431.53016
 239.13330	1400.81063
 239.34816	1490.92125
 239.56302	1452.00984
 239.77786	1456.10578
 239.99270	1454.05781
 240.20752	1454.05781
 240.42234	1427.43422
 240.63715	1421.29031
 240.85194	1413.09844
 241.06673	1411.05047
 241.28151	1402.85859
 241.49628	1417.19438
 241.71104	1490.92125
 241.92579	1425.38625
 242.14053	1429.48219
 242.35526	1431.53016
 242.56998	1380.33094
 242.78469	1460.20172
 242.99939	1482.72937
 243.21408	1456.10578
 243.42876	1449.96187
 243.64344	1384.42688
 243.85810	1429.48219
 244.07275	1417.19438
 244.28740	1392.61875
 244.50203	1449.96187
 244.71665	1439.72203
 244.93127	1396.71469
 245.14587	1509.35297
 245.36047	1431.53016
 245.57505	1390.57078
 245.78963	1429.48219
 246.00420	1476.58547
 246.21875	1406.95453
 246.43330	1437.67406
 246.64784	1421.29031
 246.86237	1402.85859
 247.07688	1441.77000
 247.29139	1433.57812
 247.50589	1482.72937
 247.72038	1464.29766
 247.93486	1421.29031
 248.14933	1421.29031
 248.36379	1443.81797
 248.57824	1415.14641
 248.79268	1462.24969
 249.00711	1464.29766
 249.22153	1449.96187
 249.43594	1462.24969
 249.65034	1447.91391
 249.86474	1392.61875
 250.07912	1466.34562
 250.29349	1454.05781
 250.50785	1368.04312
 250.72221	1376.23500
 250.93655	1365.99516
 251.15088	1400.81063
 251.36521	1431.53016
 251.57952	1382.37891
 251.79383	1435.62609
 252.00812	1427.43422
 252.22241	1411.05047
 252.43668	1507.30500
 252.65095	1406.95453
 252.86520	1456.10578
 253.07945	1478.63344
 253.29369	1409.00250
 253.50791	1427.43422
 253.72213	1443.81797
 253.93634	1388.52281
 254.15054	1417.19438
 254.36472	1437.67406
 254.57890	1452.00984
 254.79307	1441.77000
 255.00723	1431.53016
 255.22138	1386.47484
 255.43551	1464.29766
 255.64964	1431.53016
 255.86376	1470.44156
 256.07787	1419.24234
 256.29197	1400.81063
 256.50606	1333.22766
 256.72014	1480.68141
 256.93421	1370.09109
 257.14827	1443.81797
 257.36232	1454.05781
 257.57637	1398.76266
 257.79040	1449.96187
 258.00442	1421.29031
 258.21843	1417.19438
 258.43243	1427.43422
 258.64642	1415.14641
 258.86041	1433.57812
 259.07438	1425.38625
 259.28834	1423.33828
 259.50229	1374.18703
 259.71624	1462.24969
 259.93017	1499.11313
 260.14409	1411.05047
 260.35801	1443.81797
 260.57191	1464.29766
 260.78580	1449.96187
 260.99969	1464.29766
 261.21356	1452.00984
 261.42743	1404.90656
 261.64128	1419.24234
 261.85512	1439.72203
 262.06896	1454.05781
 262.28278	1495.01719
 262.49660	1361.89922
 262.71040	1431.53016
 262.92420	1445.86594
 263.13799	1503.20906
 263.35176	1378.28297
 263.56553	1441.77000
 263.77928	1421.29031
 263.99303	1423.33828
 264.20677	1419.24234
 264.42049	1441.77000
 264.63421	1476.58547
 264.84791	1458.15375
 265.06161	1433.57812
 265.27530	1372.13906
 265.48897	1347.56344
 265.70264	1404.90656
 265.91630	1443.81797
 266.12995	1431.53016
 266.34358	1386.47484
 266.55721	1478.63344
 266.77083	1429.48219
 266.98444	1361.89922
 267.19803	1398.76266
 267.41162	1400.81063
 267.62520	1382.37891
 267.83877	1445.86594
 268.05232	1400.81063
 268.26587	1429.48219
 268.47941	1402.85859
 268.69294	1386.47484
 268.90646	1394.66672
 269.11997	1439.72203
 269.33346	1419.24234
 269.54695	1431.53016
 269.76043	1525.73672
 269.97390	1486.82531
 270.18736	1425.38625
 270.40081	1462.24969
 270.61425	1413.09844
 270.82767	1462.24969
 271.04109	1402.85859
 271.25450	1474.53750
 271.46790	1402.85859
 271.68129	1501.16109
 271.89467	1427.43422
 272.10804	1355.75531
 272.32140	1359.85125
 272.53475	1398.76266
 272.74809	1384.42688
 272.96142	1392.61875
 273.17473	1445.86594
 273.38804	1413.09844
 273.60134	1374.18703
 273.81463	1413.09844
 274.02791	1476.58547
 274.24118	1470.44156
 274.45444	1447.91391
 274.66769	1437.67406
 274.88093	1421.29031
 275.09416	1392.61875
 275.30738	1372.13906
 275.52059	1492.96922
 275.73379	1466.34562
 275.94697	1431.53016
 276.16015	1449.96187
 276.37332	1431.53016
 276.58648	1400.81063
 276.79963	1402.85859
 277.01277	1423.33828
 277.22590	1470.44156
 277.43902	1402.85859
 277.65213	1517.54484
 277.86523	1507.30500
 278.07832	1454.05781
 278.29140	1402.85859
 278.50446	1365.99516
 278.71752	1441.77000
 278.93057	1476.58547
 279.14361	1447.91391
 279.35664	1458.15375
 279.56966	1427.43422
 279.78267	1419.24234
 279.99567	1417.19438
 280.20865	1394.66672
 280.42163	1413.09844
 280.63460	1478.63344
 280.84756	1404.90656
 281.06051	1370.09109
 281.27345	1474.53750
 281.48637	1429.48219
 281.69929	1361.89922
 281.91220	1409.00250
 282.12510	1419.24234
 282.33799	1470.44156
 282.55086	1452.00984
 282.76373	1503.20906
 282.97659	1423.33828
 283.18944	1480.68141
 283.40227	1386.47484
 283.61510	1417.19438
 283.82792	1400.81063
 284.04072	1441.77000
 284.25352	1400.81063
 284.46631	1441.77000
 284.67908	1396.71469
 284.89185	1421.29031
 285.10461	1404.90656
 285.31735	1531.88063
 285.53009	1486.82531
 285.74282	1449.96187
 285.95553	1497.06516
 286.16824	1396.71469
 286.38093	1417.19438
 286.59362	1476.58547
 286.80629	1472.48953
 287.01896	1523.68875
 287.23161	1423.33828
 287.44426	1464.29766
 287.65689	1470.44156
 287.86952	1353.70734
 288.08213	1386.47484
 288.29474	1486.82531
 288.50733	1437.67406
 288.71992	1472.48953
 288.93249	1396.71469
 289.14505	1423.33828
 289.35761	1363.94719
 289.57015	1402.85859
 289.78268	1423.33828
 289.99521	1441.77000
 290.20772	1470.44156
 290.42022	1462.24969
 290.63271	1435.62609
 290.84520	1480.68141
 291.05767	1419.24234
 291.27013	1466.34562
 291.48258	1374.18703
 291.69502	1480.68141
 291.90745	1468.39359
 292.11987	1509.35297
 292.33229	1476.58547
 292.54469	1495.01719
 292.75708	1335.27562
 292.96946	1433.57812
 293.18183	1392.61875
 293.39419	1396.71469
 293.60654	1460.20172
 293.81888	1458.15375
 294.03120	1411.05047
 294.24352	1402.85859
 294.45583	1449.96187
 294.66813	1466.34562
 294.88042	1351.65937
 295.09270	1470.44156
 295.30496	1394.66672
 295.51722	1427.43422
 295.72947	1376.23500
 295.94171	1402.85859
 296.15393	1497.06516
 296.36615	1466.34562
 296.57836	1402.85859
 296.79055	1433.57812
 297.00274	1447.91391
 297.21491	1443.81797
 297.42708	1417.19438
 297.63923	1462.24969
 297.85138	1404.90656
 298.06351	1388.52281
 298.27564	1382.37891
 298.48775	1456.10578
 298.69985	1445.86594
 298.91195	1458.15375
 299.12403	1445.86594
 299.33610	1464.29766
 299.54816	1462.24969
 299.76022	1417.19438
 299.97226	1392.61875
 300.18429	1456.10578
 300.39631	1435.62609
 300.60832	1400.81063
 300.82032	1476.58547
 301.03231	1419.24234
 301.24429	1492.96922
 301.45626	1421.29031
 301.66822	1415.14641
 301.88017	1460.20172
 302.09211	1421.29031
 302.30404	1423.33828
 302.51596	1343.46750
 302.72786	1478.63344
 302.93976	1429.48219
 303.15165	1458.15375
 303.36352	1400.81063
 303.57539	1411.05047
 303.78725	1460.20172
 303.99909	1466.34562
 304.21093	1441.77000
 304.42275	1458.15375
 304.63457	1417.19438
 304.84637	1470.44156
 305.05817	1470.44156
 305.26995	1470.44156
 305.48172	1472.48953
 305.69349	1456.10578
 305.90524	1392.61875
 306.11698	1411.05047
 306.32871	1370.09109
 306.54043	1497.06516
 306.75214	1413.09844
 306.96384	1482.72937
 307.17554	1441.77000
 307.38721	1466.34562
 307.59888	1337.32359
 307.81054	1415.14641
 308.02219	1486.82531
 308.23383	1378.28297
 308.44546	1429.48219
 308.65708	1413.09844
 308.86868	1386.47484
 309.08028	1411.05047
 309.29187	1392.61875
 309.50344	1396.71469
 309.71501	1417.19438
 309.92656	1462.24969
 310.13811	1411.05047
 310.34964	1404.90656
 310.56116	1411.05047
 310.77268	1402.85859
 310.98418	1376.23500
 311.19567	1456.10578
 311.40716	1372.13906
 311.61863	1415.14641
 311.83009	1472.48953
 312.04154	1435.62609
 312.25298	1449.96187
 312.46441	1415.14641
 312.67583	1492.96922
 312.88724	1372.13906
 313.09864	1419.24234
 313.31002	1486.82531
 313.52140	1452.00984
 313.73277	1400.81063
 313.94413	1333.22766
 314.15547	1464.29766
 314.36681	1466.34562
 314.57813	1425.38625
 314.78945	1441.77000
 315.00075	1447.91391
 315.21205	1468.39359
 315.42333	1382.37891
 315.63460	1462.24969
 315.84587	1456.10578
 316.05712	1464.29766
 316.26836	1449.96187
 316.47959	1378.28297
 316.69081	1478.63344
 316.90202	1415.14641
 317.11322	1357.80328
 317.32441	1468.39359
 317.53559	1437.67406
 317.74675	1484.77734
 317.95791	1458.15375
 318.16906	1413.09844
 318.38020	1370.09109
 318.59132	1474.53750
 318.80244	1386.47484
 319.01354	1484.77734
 319.22464	1511.40094
 319.43572	1435.62609
 319.64679	1503.20906
 319.85786	1431.53016
 320.06891	1437.67406
 320.27995	1435.62609
 320.49098	1433.57812
 320.70200	1470.44156
 320.91301	1411.05047
 321.12401	1396.71469
 321.33500	1462.24969
 321.54598	1441.77000
 321.75695	1437.67406
 321.96790	1449.96187
 322.17885	1400.81063
 322.38979	1449.96187
 322.60071	1431.53016
 322.81163	1368.04312
 323.02253	1492.96922
 323.23343	1423.33828
 323.44431	1427.43422
 323.65518	1462.24969
 323.86604	1413.09844
 324.07690	1454.05781
 324.28774	1425.38625
 324.49857	1482.72937
 324.70939	1460.20172
 324.92020	1370.09109
 325.13099	1441.77000
 325.34178	1359.85125
 325.55256	1384.42688
 325.76333	1421.29031
 325.97408	1460.20172
 326.18483	1406.95453
 326.39556	1435.62609
 326.60629	1458.15375
 326.81700	1466.34562
 327.02770	1406.95453
 327.23840	1411.05047
 327.44908	1413.09844
 327.65975	1429.48219
 327.87041	1449.96187
 328.08106	1497.06516
 328.29170	1439.72203
 328.50233	1415.14641
 328.71295	1388.52281
 328.92355	1439.72203
 329.13415	1376.23500
 329.34474	1374.18703
 329.55531	1400.81063
 329.76588	1437.67406
 329.97643	1400.81063
 330.18698	1423.33828
 330.39751	1464.29766
 330.60803	1505.25703
 330.81854	1382.37891
 331.02904	1429.48219
 331.23953	1427.43422
 331.45001	1415.14641
 331.66048	1437.67406
 331.87094	1425.38625
 332.08139	1445.86594
 332.29183	1443.81797
 332.50225	1417.19438
 332.71267	1394.66672
 332.92307	1470.44156
 333.13347	1449.96187
 333.34385	1443.81797
 333.55422	1415.14641
 333.76458	1447.91391
 333.97494	1431.53016
 334.18528	1365.99516
 334.39561	1460.20172
 334.60593	1351.65937
 334.81623	1406.95453
 335.02653	1398.76266
 335.23682	1443.81797
 335.44709	1380.33094
 335.65736	1368.04312
 335.86762	1458.15375
 336.07786	1437.67406
 336.28809	1404.90656
 336.49832	1411.05047
 336.70853	1443.81797
 336.91873	1355.75531
 337.12892	1462.24969
 337.33910	1363.94719
 337.54927	1443.81797
 337.75943	1495.01719
 337.96957	1447.91391
 338.17971	1388.52281
 338.38984	1492.96922
 338.59995	1490.92125
 338.81006	1421.29031
 339.02015	1357.80328
 339.23023	1378.28297
 339.44031	1404.90656
 339.65037	1382.37891
 339.86042	1456.10578
 340.07046	1462.24969
 340.28049	1499.11313
 340.49051	1384.42688
 340.70051	1462.24969
 340.91051	1468.39359
 341.12050	1437.67406
 341.33047	1431.53016
 341.54044	1394.66672
 341.75039	1507.30500
 341.96033	1437.67406
 342.17026	1402.85859
 342.38018	1538.02453
 342.59010	1417.19438
 342.79999	1462.24969
 343.00988	1452.00984
 343.21976	1480.68141
 343.42963	1433.57812
 343.63949	1456.10578
 343.84933	1439.72203
 344.05917	1507.30500
 344.26899	1474.53750
 344.47880	1327.08375
 344.68860	1339.37156
 344.89840	1425.38625
 345.10818	1423.33828
 345.31795	1443.81797
 345.52771	1421.29031
 345.73745	1351.65937
 345.94719	1482.72937
 346.15692	1515.49688
 346.36663	1433.57812
 346.57634	1472.48953
 346.78603	1454.05781
 346.99571	1472.48953
 347.20539	1452.00984
 347.41505	1492.96922
 347.62470	1490.92125
 347.83434	1449.96187
 348.04397	1419.24234
 348.25358	1456.10578
 348.46319	1415.14641
 348.67279	1447.91391
 348.88237	1482.72937
 349.09195	1431.53016
 349.30151	1441.77000
 349.51106	1400.81063
 349.72060	1474.53750
 349.93013	1503.20906
 350.13965	1449.96187
 350.34916	1445.86594
 350.55866	1417.19438
 350.76815	1409.00250
 350.97762	1445.86594
 351.18709	1445.86594
 351.39654	1466.34562
 351.60599	1402.85859
 351.81542	1452.00984
 352.02484	1490.92125
 352.23425	1437.67406
 352.44365	1460.20172
 352.65304	1501.16109
 352.86242	1429.48219
 353.07179	1468.39359
 353.28114	1488.87328
 353.49049	1497.06516
 353.69982	1425.38625
 353.90914	1464.29766
 354.11846	1454.05781
 354.32776	1472.48953
 354.53705	1497.06516
 354.74633	1388.52281
 354.95560	1527.78469
 355.16485	1437.67406
 355.37410	1441.77000
 355.58334	1482.72937
 355.79256	1423.33828
 356.00177	1495.01719
 356.21098	1460.20172
 356.42017	1484.77734
 356.62935	1427.43422
 356.83852	1454.05781
 357.04768	1441.77000
 357.25683	1382.37891
 357.46596	1404.90656
 357.67509	1464.29766
 357.88420	1411.05047
 358.09331	1474.53750
 358.30240	1404.90656
 358.51148	1466.34562
 358.72055	1470.44156
 358.92961	1411.05047
 359.13866	1411.05047
 359.34770	1472.48953
 359.55673	1443.81797
 359.76574	1445.86594
 359.97475	1447.91391
 360.18374	1409.00250
 360.39272	1421.29031
 360.60170	1507.30500
 360.81066	1443.81797
 361.01961	1443.81797
 361.22855	1441.77000
 361.43747	1406.95453
 361.64639	1409.00250
 361.85530	1441.77000
 362.06419	1447.91391
 362.27307	1452.00984
 362.48195	1409.00250
 362.69081	1402.85859
 362.89966	1476.58547
 363.10850	1411.05047
 363.31733	1370.09109
 363.52614	1413.09844
 363.73495	1464.29766
 363.94374	1433.57812
 364.15253	1415.14641
 364.36130	1466.34562
 364.57006	1478.63344
 364.77881	1429.48219
 364.98755	1458.15375
 365.19628	1509.35297
 365.40500	1404.90656
 365.61371	1490.92125
 365.82240	1503.20906
 366.03109	1404.90656
 366.23976	1409.00250
 366.44842	1415.14641
 366.65707	1478.63344
 366.86571	1431.53016
 367.07434	1460.20172
 367.28296	1443.81797
 367.49157	1480.68141
 367.70016	1437.67406
 367.90875	1427.43422
 368.11732	1419.24234
 368.32588	1480.68141
 368.53443	1413.09844
 368.74297	1409.00250
 368.95150	1482.72937
 369.16002	1470.44156
 369.36853	1437.67406
 369.57702	1441.77000
 369.78551	1472.48953
 369.99398	1419.24234
 370.20244	1490.92125
 370.41089	1470.44156
 370.61933	1458.15375
 370.82776	1449.96187
 371.03618	1406.95453
 371.24459	1490.92125
 371.45298	1417.19438
 371.66137	1429.48219
 371.86974	1466.34562
 372.07810	1433.57812
 372.28645	1511.40094
 372.49479	1402.85859
 372.70312	1468.39359
 372.91144	1456.10578
 373.11974	1443.81797
 373.32804	1423.33828
 373.53632	1486.82531
 373.74459	1415.14641
 373.95285	1431.53016
 374.16110	1449.96187
 374.36934	1462.24969
 374.57757	1538.02453
 374.78579	1515.49688
 374.99399	1525.73672
 375.20219	1433.57812
 375.41037	1495.01719
 375.61854	1417.19438
 375.82670	1466.34562
 376.03485	1546.21641
 376.24299	1449.96187
 376.45112	1388.52281
 376.65923	1466.34562
 376.86734	1454.05781
 377.07543	1409.00250
 377.28351	1417.19438
 377.49158	1392.61875
 377.69964	1392.61875
 377.90769	1492.96922
 378.11573	1423.33828
 378.32375	1441.77000
 378.53177	1486.82531
 378.73977	1452.00984
 378.94776	1535.97656
 379.15574	1505.25703
 379.36371	1427.43422
 379.57167	1480.68141
 379.77962	1445.86594
 379.98755	1421.29031
 380.19548	1329.13172
 380.40339	1427.43422
 380.61129	1406.95453
 380.81919	1472.48953
 381.02707	1495.01719
 381.23493	1378.28297
 381.44279	1521.64078
 381.65064	1404.90656
 381.85847	1396.71469
 382.06629	1429.48219
 382.27411	1439.72203
 382.48191	1386.47484
 382.68970	1431.53016
 382.89747	1388.52281
 383.10524	1384.42688
 383.31300	1464.29766
 383.52074	1454.05781
 383.72847	1490.92125
 383.93619	1449.96187
 384.14390	1460.20172
 384.35160	1441.77000
 384.55929	1423.33828
 384.76697	1435.62609
 384.97463	1431.53016
 385.18229	1427.43422
 385.38993	1458.15375
 385.59756	1413.09844
 385.80518	1456.10578
 386.01279	1402.85859
 386.22038	1452.00984
 386.42797	1478.63344
 386.63554	1509.35297
 386.84311	1468.39359
 387.05066	1464.29766
 387.25820	1406.95453
 387.46573	1431.53016
 387.67325	1472.48953
 387.88075	1449.96187
 388.08825	1433.57812
 388.29573	1437.67406
 388.50320	1474.53750
 388.71066	1333.22766
 388.91811	1411.05047
 389.12555	1470.44156
 389.33298	1404.90656
 389.54039	1476.58547
 389.74780	1452.00984
 389.95519	1433.57812
 390.16257	1495.01719
 390.36994	1445.86594
 390.57730	1437.67406
 390.78465	1527.78469
 390.99198	1402.85859
 391.19931	1470.44156
 391.40662	1445.86594
 391.61392	1417.19438
 391.82121	1419.24234
 392.02849	1482.72937
 392.23576	1511.40094
 392.44301	1435.62609
 392.65026	1497.06516
 392.85749	1435.62609
 393.06471	1460.20172
 393.27192	1544.16844
 393.47912	1497.06516
 393.68631	1423.33828
 393.89349	1415.14641
 394.10065	1511.40094
 394.30780	1517.54484
 394.51495	1445.86594
 394.72208	1452.00984
 394.92920	1511.40094
 395.13630	1478.63344
 395.34340	1495.01719
 395.55048	1490.92125
 395.75756	1423.33828
 395.96462	1464.29766
 396.17167	1474.53750
 396.37871	1468.39359
 396.58573	1509.35297
 396.79275	1550.31234
 396.99975	1490.92125
 397.20675	1449.96187
 397.41373	1533.92859
 397.62070	1509.35297
 397.82766	1497.06516
 398.03460	1468.39359
 398.24154	1513.44891
 398.44846	1435.62609
 398.65538	1574.88797
 398.86228	1447.91391
 399.06917	1492.96922
 399.27605	1509.35297
 399.48291	1505.25703
 399.68977	1540.07250
 399.89661	1495.01719
 400.10344	1492.96922
 400.31026	1556.45625
 400.51707	1495.01719
 400.72387	1439.72203
 400.93066	1581.03187
 401.13743	1591.27172
 401.34419	1587.17578
 401.55095	1572.84000
 401.75769	1478.63344
 401.96441	1533.92859
 402.17113	1525.73672
 402.37784	1511.40094
 402.58453	1538.02453
 402.79121	1531.88063
 402.99788	1515.49688
 403.20454	1554.40828
 403.41119	1468.39359
 403.61783	1544.16844
 403.82445	1531.88063
 404.03107	1499.11313
 404.23767	1525.73672
 404.44426	1525.73672
 404.65084	1544.16844
 404.85740	1550.31234
 405.06396	1583.07984
 405.27050	1531.88063
 405.47703	1552.36031
 405.68356	1585.12781
 405.89006	1519.59281
 406.09656	1531.88063
 406.30305	1482.72937
 406.50952	1568.74406
 406.71599	1503.20906
 406.92244	1540.07250
 407.12888	1546.21641
 407.33530	1566.69609
 407.54172	1552.36031
 407.74813	1566.69609
 407.95452	1527.78469
 408.16090	1628.13516
 408.36727	1488.87328
 408.57363	1517.54484
 408.77998	1535.97656
 408.98631	1482.72937
 409.19264	1591.27172
 409.39895	1544.16844
 409.60525	1535.97656
 409.81154	1538.02453
 410.01781	1556.45625
 410.22408	1546.21641
 410.43033	1529.83266
 410.63658	1556.45625
 410.84281	1568.74406
 411.04903	1617.89531
 411.25523	1601.51156
 411.46143	1550.31234
 411.66761	1601.51156
 411.87379	1523.68875
 412.07995	1531.88063
 412.28610	1605.60750
 412.49223	1570.79203
 412.69836	1533.92859
 412.90447	1572.84000
 413.11058	1501.16109
 413.31667	1578.98391
 413.52275	1531.88063
 413.72881	1587.17578
 413.93487	1548.26437
 414.14091	1638.37500
 414.34695	1548.26437
 414.55297	1605.60750
 414.75898	1558.50422
 414.96497	1552.36031
 415.17096	1562.60016
 415.37693	1548.26437
 415.58290	1634.27906
 415.78885	1521.64078
 415.99479	1587.17578
 416.20071	1515.49688
 416.40663	1593.31969
 416.61253	1544.16844
 416.81843	1601.51156
 417.02431	1593.31969
 417.23018	1552.36031
 417.43603	1540.07250
 417.64188	1548.26437
 417.84771	1556.45625
 418.05353	1630.18313
 418.25935	1578.98391
 418.46514	1544.16844
 418.67093	1542.12047
 418.87671	1560.55219
 419.08247	1513.44891
 419.28822	1593.31969
 419.49396	1542.12047
 419.69969	1535.97656
 419.90541	1560.55219
 420.11111	1607.65547
 420.31680	1535.97656
 420.52248	1560.55219
 420.72815	1597.41563
 420.93381	1640.42297
 421.13946	1538.02453
 421.34509	1529.83266
 421.55071	1638.37500
 421.75633	1587.17578
 421.96192	1570.79203
 422.16751	1601.51156
 422.37309	1587.17578
 422.57865	1531.88063
 422.78420	1574.88797
 422.98974	1521.64078
 423.19527	1591.27172
 423.40079	1552.36031
 423.60629	1556.45625
 423.81178	1619.94328
 424.01727	1564.64812
 424.22273	1601.51156
 424.42819	1576.93594
 424.63364	1558.50422
 424.83907	1568.74406
 425.04449	1523.68875
 425.24990	1550.31234
 425.45530	1552.36031
 425.66069	1501.16109
 425.86606	1533.92859
 426.07143	1589.22375
 426.27678	1538.02453
 426.48212	1552.36031
 426.68745	1552.36031
 426.89276	1576.93594
 427.09807	1587.17578
 427.30336	1533.92859
 427.50864	1558.50422
 427.71391	1587.17578
 427.91916	1597.41563
 428.12441	1529.83266
 428.32964	1560.55219
 428.53486	1517.54484
 428.74007	1523.68875
 428.94527	1538.02453
 429.15045	1581.03187
 429.35563	1550.31234
 429.56079	1603.55953
 429.76594	1472.48953
 429.97108	1519.59281
 430.17620	1560.55219
 430.38132	1611.75141
 430.58642	1544.16844
 430.79151	1542.12047
 430.99659	1542.12047
 431.20166	1544.16844
 431.40671	1593.31969
 431.61175	1583.07984
 431.81679	1664.99859
 432.02181	1542.12047
 432.22681	1568.74406
 432.43181	1566.69609
 432.63679	1492.96922
 432.84176	1574.88797
 433.04672	1638.37500
 433.25167	1576.93594
 433.45661	1568.74406
 433.66153	1595.36766
 433.86644	1511.40094
 434.07134	1566.69609
 434.27623	1574.88797
 434.48111	1617.89531
 434.68597	1576.93594
 434.89083	1558.50422
 435.09567	1583.07984
 435.30050	1601.51156
 435.50531	1613.79938
 435.71012	1562.60016
 435.91491	1581.03187
 436.11969	1552.36031
 436.32446	1615.84734
 436.52922	1507.30500
 436.73396	1581.03187
 436.93870	1613.79938
 437.14342	1562.60016
 437.34813	1601.51156
 437.55282	1576.93594
 437.75751	1624.03922
 437.96218	1554.40828
 438.16684	1560.55219
 438.37149	1613.79938
 438.57613	1642.47094
 438.78076	1507.30500
 438.98537	1638.37500
 439.18997	1603.55953
 439.39456	1568.74406
 439.59914	1574.88797
 439.80370	1576.93594
 440.00826	1656.80672
 440.21280	1638.37500
 440.41733	1570.79203
 440.62185	1552.36031
 440.82635	1621.99125
 441.03085	1540.07250
 441.23533	1673.19047
 441.43980	1583.07984
 441.64425	1636.32703
 441.84870	1617.89531
 442.05313	1632.23109
 442.25756	1581.03187
 442.46196	1593.31969
 442.66636	1691.62219
 442.87075	1617.89531
 443.07512	1605.60750
 443.27948	1568.74406
 443.48383	1587.17578
 443.68817	1576.93594
 443.89250	1632.23109
 444.09681	1601.51156
 444.30111	1531.88063
 444.50540	1572.84000
 444.70968	1636.32703
 444.91394	1613.79938
 445.11819	1542.12047
 445.32244	1560.55219
 445.52666	1650.66281
 445.73088	1544.16844
 445.93509	1624.03922
 446.13928	1617.89531
 446.34346	1673.19047
 446.54763	1533.92859
 446.75179	1572.84000
 446.95593	1621.99125
 447.16006	1589.22375
 447.36418	1599.46359
 447.56829	1556.45625
 447.77239	1585.12781
 447.97647	1667.04656
 448.18054	1644.51891
 448.38460	1540.07250
 448.58865	1603.55953
 448.79269	1638.37500
 448.99671	1587.17578
 449.20072	1611.75141
 449.40472	1638.37500
 449.60871	1619.94328
 449.81268	1585.12781
 450.01665	1605.60750
 450.22060	1560.55219
 450.42454	1613.79938
 450.62846	1638.37500
 450.83238	1556.45625
 451.03628	1548.26437
 451.24017	1621.99125
 451.44405	1535.97656
 451.64792	1605.60750
 451.85177	1589.22375
 452.05561	1626.08719
 452.25944	1611.75141
 452.46326	1615.84734
 452.66706	1667.04656
 452.87086	1603.55953
 453.07464	1658.85469
 453.27841	1632.23109
 453.48217	1529.83266
 453.68591	1634.27906
 453.88964	1589.22375
 454.09336	1613.79938
 454.29707	1550.31234
 454.50077	1650.66281
 454.70445	1605.60750
 454.90812	1546.21641
 455.11178	1605.60750
 455.31543	1611.75141
 455.51906	1671.14250
 455.72269	1642.47094
 455.92630	1533.92859
 456.12990	1603.55953
 456.33348	1511.40094
 456.53706	1607.65547
 456.74062	1581.03187
 456.94417	1632.23109
 457.14771	1544.16844
 457.35123	1613.79938
 457.55475	1570.79203
 457.75825	1632.23109
 457.96174	1632.23109
 458.16521	1611.75141
 458.36868	1671.14250
 458.57213	1550.31234
 458.77557	1603.55953
 458.97900	1589.22375
 459.18241	1646.56687
 459.38582	1605.60750
 459.58921	1626.08719
 459.79259	1597.41563
 459.99595	1550.31234
 460.19931	1654.75875
 460.40265	1554.40828
 460.60598	1632.23109
 460.80930	1652.71078
 461.01260	1617.89531
 461.21589	1574.88797
 461.41918	1609.70344
 461.62244	1644.51891
 461.82570	1535.97656
 462.02894	1656.80672
 462.23218	1624.03922
 462.43540	1628.13516
 462.63860	1605.60750
 462.84180	1619.94328
 463.04498	1664.99859
 463.24815	1662.95062
 463.45131	1636.32703
 463.65446	1650.66281
 463.85759	1628.13516
 464.06071	1693.67016
 464.26382	1630.18313
 464.46692	1619.94328
 464.67000	1593.31969
 464.87307	1601.51156
 465.07613	1667.04656
 465.27918	1607.65547
 465.48222	1632.23109
 465.68524	1646.56687
 465.88825	1662.95062
 466.09125	1624.03922
 466.29423	1583.07984
 466.49721	1591.27172
 466.70017	1572.84000
 466.90312	1642.47094
 467.10606	1654.75875
 467.30898	1650.66281
 467.51189	1587.17578
 467.71479	1664.99859
 467.91768	1607.65547
 468.12055	1566.69609
 468.32342	1626.08719
 468.52627	1589.22375
 468.72911	1640.42297
 468.93193	1628.13516
 469.13474	1552.36031
 469.33755	1601.51156
 469.54033	1632.23109
 469.74311	1634.27906
 469.94588	1603.55953
 470.14863	1648.61484
 470.35137	1677.28641
 470.55409	1675.23844
 470.75681	1646.56687
 470.95951	1603.55953
 471.16220	1664.99859
 471.36488	1681.38234
 471.56754	1628.13516
 471.77019	1640.42297
 471.97283	1648.61484
 472.17546	1632.23109
 472.37808	1675.23844
 472.58068	1685.47828
 472.78327	1757.15719
 472.98585	1650.66281
 473.18842	1615.84734
 473.39097	1671.14250
 473.59351	1615.84734
 473.79604	1660.90266
 473.99856	1664.99859
 474.20106	1691.62219
 474.40355	1714.14984
 474.60603	1654.75875
 474.80850	1630.18313
 475.01095	1675.23844
 475.21339	1611.75141
 475.41582	1703.91000
 475.61824	1648.61484
 475.82064	1628.13516
 476.02304	1662.95062
 476.22542	1718.24578
 476.42778	1644.51891
 476.63014	1742.82141
 476.83248	1732.58156
 477.03481	1734.62953
 477.23713	1683.43031
 477.43943	1730.53359
 477.64173	1656.80672
 477.84401	1646.56687
 478.04627	1728.48563
 478.24853	1667.04656
 478.45077	1785.82875
 478.65300	1730.53359
 478.85522	1746.91734
 479.05742	1759.20516
 479.25962	1697.76609
 479.46180	1787.87672
 479.66396	1724.38969
 479.86612	1660.90266
 480.06826	1757.15719
 480.27039	1671.14250
 480.47251	1732.58156
 480.67462	1748.96531
 480.87671	1710.05391
 481.07879	1714.14984
 481.28086	1701.86203
 481.48291	1767.39703
 481.68496	1724.38969
 481.88699	1740.77344
 482.08900	1787.87672
 482.29101	1687.52625
 482.49300	1798.11656
 482.69498	1748.96531
 482.89695	1710.05391
 483.09891	1734.62953
 483.30085	1728.48563
 483.50278	1732.58156
 483.70470	1767.39703
 483.90660	1748.96531
 484.10850	1777.63687
 484.31038	1673.19047
 484.51224	1804.26047
 484.71410	1773.54094
 484.91594	1693.67016
 485.11777	1726.43766
 485.31959	1681.38234
 485.52139	1640.42297
 485.72319	1667.04656
 485.92497	1619.94328
 486.12673	1736.67750
 486.32849	1648.61484
 486.53023	1712.10188
 486.73196	1730.53359
 486.93368	1708.00594
 487.13538	1742.82141
 487.33707	1685.47828
 487.53875	1769.44500
 487.74042	1710.05391
 487.94207	1734.62953
 488.14371	1798.11656
 488.34534	1732.58156
 488.54696	1748.96531
 488.74856	1798.11656
 488.95015	1757.15719
 489.15173	1679.33437
 489.35330	1769.44500
 489.55485	1802.21250
 489.75639	1796.06859
 489.95792	1785.82875
 490.15943	1671.14250
 490.36094	1703.91000
 490.56243	1763.30109
 490.76391	1753.06125
 490.96537	1728.48563
 491.16682	1800.16453
 491.36826	1796.06859
 491.56969	1744.86937
 491.77110	1822.69219
 491.97251	1755.10922
 492.17390	1761.25312
 492.37527	1732.58156
 492.57664	1753.06125
 492.77799	1755.10922
 492.97933	1708.00594
 493.18065	1759.20516
 493.38197	1705.95797
 493.58327	1732.58156
 493.78455	1824.74016
 493.98583	1771.49297
 494.18709	1783.78078
 494.38834	1724.38969
 494.58958	1761.25312
 494.79080	1837.02797
 494.99202	1757.15719
 495.19322	1771.49297
 495.39440	1796.06859
 495.59558	1802.21250
 495.79674	1718.24578
 495.99789	1640.42297
 496.19902	1794.02063
 496.40015	1839.07594
 496.60126	1791.97266
 496.80235	1791.97266
 497.00344	1683.43031
 497.20451	1718.24578
 497.40557	1871.84344
 497.60662	1753.06125
 497.80765	1732.58156
 498.00868	1812.45234
 498.20968	1763.30109
 498.41068	1771.49297
 498.61166	1748.96531
 498.81264	1777.63687
 499.01359	1759.20516
 499.21454	1748.96531
 499.41547	1826.78813
 499.61639	1765.34906
 499.81730	1802.21250
 500.01819	1710.05391
 500.21908	1787.87672
 500.41994	1695.71813
 500.62080	1757.15719
 500.82164	1716.19781
 501.02247	1748.96531
 501.22329	1740.77344
 501.42410	1791.97266
 501.62489	1683.43031
 501.82567	1708.00594
 502.02644	1673.19047
 502.22719	1755.10922
 502.42793	1753.06125
 502.62866	1736.67750
 502.82938	1761.25312
 503.03008	1794.02063
 503.23077	1830.88406
 503.43145	1660.90266
 503.63211	1791.97266
 503.83277	1781.73281
 504.03341	1689.57422
 504.23403	1728.48563
 504.43465	1720.29375
 504.63525	1796.06859
 504.83583	1744.86937
 505.03641	1738.72547
 505.23697	1724.38969
 505.43752	1787.87672
 505.63806	1808.35641
 505.83858	1771.49297
 506.03909	1779.68484
 506.23959	1841.12391
 506.44008	1757.15719
 506.64055	1755.10922
 506.84101	1730.53359
 507.04146	1744.86937
 507.24189	1771.49297
 507.44232	1757.15719
 507.64272	1771.49297
 507.84312	1773.54094
 508.04350	1818.59625
 508.24387	1822.69219
 508.44423	1820.64422
 508.64458	1773.54094
 508.84491	1744.86937
 509.04523	1712.10188
 509.24553	1818.59625
 509.44583	1775.58891
 509.64611	1736.67750
 509.84637	1748.96531
 510.04663	1806.30844
 510.24687	1767.39703
 510.44710	1751.01328
 510.64731	1753.06125
 510.84752	1755.10922
 511.04771	1744.86937
 511.24789	1769.44500
 511.44805	1808.35641
 511.64820	1769.44500
 511.84834	1775.58891
 512.04847	1781.73281
 512.24858	1794.02063
 512.44868	1802.21250
 512.64877	1802.21250
 512.84884	1714.14984
 513.04890	1755.10922
 513.24895	1804.26047
 513.44899	1818.59625
 513.64901	1798.11656
 513.84902	1832.93203
 514.04902	1736.67750
 514.24900	1724.38969
 514.44897	1777.63687
 514.64893	1839.07594
 514.84887	1689.57422
 515.04881	1751.01328
 515.24873	1691.62219
 515.44863	1785.82875
 515.64853	1781.73281
 515.84841	1728.48563
 516.04827	1693.67016
 516.24813	1787.87672
 516.44797	1722.34172
 516.64780	1748.96531
 516.84762	1775.58891
 517.04742	1742.82141
 517.24721	1722.34172
 517.44699	1714.14984
 517.64675	1785.82875
 517.84650	1771.49297
 518.04624	1714.14984
 518.24596	1751.01328
 518.44568	1757.15719
 518.64538	1740.77344
 518.84506	1875.93937
 519.04474	1736.67750
 519.24440	1732.58156
 519.44404	1781.73281
 519.64368	1810.40438
 519.84330	1742.82141
 520.04291	1794.02063
 520.24250	1791.97266
 520.44209	1863.65156
 520.64166	1830.88406
 520.84121	1796.06859
 521.04076	1755.10922
 521.24029	1732.58156
 521.43980	1757.15719
 521.63931	1744.86937
 521.83880	1773.54094
 522.03828	1785.82875
 522.23774	1791.97266
 522.43720	1779.68484
 522.63663	1675.23844
 522.83606	1771.49297
 523.03547	1718.24578
 523.23487	1886.17922
 523.43426	1751.01328
 523.63364	1794.02063
 523.83300	1785.82875
 524.03235	1814.50031
 524.23168	1857.50766
 524.43100	1716.19781
 524.63031	1757.15719
 524.82961	1751.01328
 525.02889	1798.11656
 525.22816	1777.63687
 525.42742	1724.38969
 525.62666	1726.43766
 525.82589	1781.73281
 526.02511	1746.91734
 526.22432	1722.34172
 526.42351	1746.91734
 526.62269	1794.02063
 526.82185	1728.48563
 527.02100	1697.76609
 527.22014	1746.91734
 527.41927	1722.34172
 527.61838	1804.26047
 527.81748	1812.45234
 528.01657	1710.05391
 528.21564	1814.50031
 528.41470	1820.64422
 528.61375	1777.63687
 528.81279	1777.63687
 529.01181	1859.55562
 529.21082	1820.64422
 529.40981	1777.63687
 529.60879	1787.87672
 529.80776	1794.02063
 530.00672	1812.45234
 530.20566	1888.22719
 530.40459	1705.95797
 530.60351	1830.88406
 530.80241	1767.39703
 531.00130	1789.92469
 531.20018	1751.01328
 531.39904	1824.74016
 531.59789	1816.54828
 531.79673	1765.34906
 531.99556	1791.97266
 532.19437	1808.35641
 532.39317	1791.97266
 532.59195	1730.53359
 532.79072	1732.58156
 532.98948	1763.30109
 533.18823	1671.14250
 533.38696	1789.92469
 533.58568	1781.73281
 533.78439	1736.67750
 533.98308	1742.82141
 534.18176	1748.96531
 534.38043	1791.97266
 534.57908	1808.35641
 534.77772	1828.83609
 534.97635	1794.02063
 535.17496	1742.82141
 535.37356	1798.11656
 535.57215	1722.34172
 535.77073	1759.20516
 535.96929	1773.54094
 536.16784	1695.71813
 536.36637	1832.93203
 536.56489	1804.26047
 536.76340	1755.10922
 536.96190	1791.97266
 537.16038	1814.50031
 537.35885	1814.50031
 537.55731	1716.19781
 537.75575	1720.29375
 537.95418	1783.78078
 538.15259	1769.44500
 538.35100	1791.97266
 538.54939	1736.67750
 538.74776	1771.49297
 538.94613	1757.15719
 539.14448	1771.49297
 539.34281	1767.39703
 539.54114	1738.72547
 539.73945	1732.58156
 539.93774	1744.86937
 540.13603	1789.92469
 540.33430	1783.78078
 540.53256	1755.10922
 540.73080	1728.48563
 540.92903	1761.25312
 541.12725	1767.39703
 541.32545	1773.54094
 541.52365	1714.14984
 541.72182	1734.62953
 541.91999	1738.72547
 542.11814	1783.78078
 542.31628	1695.71813
 542.51440	1753.06125
 542.71251	1785.82875
 542.91061	1763.30109
 543.10870	1720.29375
 543.30677	1718.24578
 543.50483	1753.06125
 543.70287	1722.34172
 543.90091	1746.91734
 544.09892	1740.77344
 544.29693	1730.53359
 544.49492	1691.62219
 544.69290	1791.97266
 544.89087	1785.82875
 545.08882	1816.54828
 545.28676	1783.78078
 545.48468	1798.11656
 545.68259	1734.62953
 545.88049	1732.58156
 546.07838	1783.78078
 546.27625	1697.76609
 546.47411	1687.52625
 546.67196	1759.20516
 546.86979	1671.14250
 547.06761	1816.54828
 547.26541	1724.38969
 547.46321	1751.01328
 547.66098	1744.86937
 547.85875	1787.87672
 548.05650	1742.82141
 548.25424	1800.16453
 548.45197	1746.91734
 548.64968	1757.15719
 548.84738	1705.95797
 549.04506	1757.15719
 549.24274	1828.83609
 549.44040	1775.58891
 549.63804	1628.13516
 549.83567	1736.67750
 550.03329	1765.34906
 550.23090	1734.62953
 550.42849	1761.25312
 550.62607	1814.50031
 550.82363	1703.91000
 551.02118	1744.86937
 551.21872	1728.48563
 551.41625	1767.39703
 551.61376	1773.54094
 551.81126	1675.23844
 552.00874	1740.77344
 552.20622	1708.00594
 552.40367	1701.86203
 552.60112	1728.48563
 552.79855	1800.16453
 552.99597	1806.30844
 553.19337	1742.82141
 553.39076	1701.86203
 553.58814	1720.29375
 553.78551	1689.57422
 553.98286	1693.67016
 554.18019	1740.77344
 554.37752	1728.48563
 554.57483	1773.54094
 554.77213	1751.01328
 554.96941	1757.15719
 555.16668	1710.05391
 555.36394	1679.33437
 555.56118	1796.06859
 555.75841	1703.91000
 555.95563	1785.82875
 556.15283	1759.20516
 556.35002	1685.47828
 556.54720	1697.76609
 556.74436	1705.95797
 556.94151	1730.53359
 557.13865	1722.34172
 557.33577	1734.62953
 557.53288	1816.54828
 557.72997	1781.73281
 557.92705	1716.19781
 558.12412	1658.85469
 558.32118	1724.38969
 558.51822	1669.09453
 558.71525	1716.19781
 558.91226	1669.09453
 559.10926	1675.23844
 559.30625	1742.82141
 559.50323	1687.52625
 559.70019	1712.10188
 559.89713	1773.54094
 560.09407	1710.05391
 560.29099	1791.97266
 560.48790	1654.75875
 560.68479	1757.15719
 560.88167	1673.19047
 561.07853	1718.24578
 561.27539	1705.95797
 561.47223	1640.42297
 561.66905	1710.05391
 561.86586	1705.95797
 562.06266	1751.01328
 562.25945	1679.33437
 562.45622	1697.76609
 562.65298	1673.19047
 562.84972	1800.16453
 563.04645	1730.53359
 563.24317	1683.43031
 563.43988	1697.76609
 563.63657	1726.43766
 563.83324	1689.57422
 564.02991	1744.86937
 564.22656	1732.58156
 564.42319	1699.81406
 564.61982	1658.85469
 564.81642	1720.29375
 565.01302	1744.86937
 565.20960	1720.29375
 565.40617	1736.67750
 565.60273	1701.86203
 565.79927	1722.34172
 565.99580	1720.29375
 566.19231	1759.20516
 566.38881	1673.19047
 566.58530	1740.77344
 566.78177	1736.67750
 566.97823	1658.85469
 567.17468	1761.25312
 567.37111	1699.81406
 567.56753	1677.28641
 567.76393	1638.37500
 567.96033	1769.44500
 568.15670	1763.30109
 568.35307	1683.43031
 568.54942	1667.04656
 568.74576	1671.14250
 568.94208	1697.76609
 569.13839	1658.85469
 569.33469	1636.32703
 569.53097	1751.01328
 569.72724	1644.51891
 569.92350	1726.43766
 570.11974	1703.91000
 570.31597	1703.91000
 570.51218	1681.38234
 570.70839	1646.56687
 570.90457	1730.53359
 571.10075	1689.57422
 571.29691	1689.57422
 571.49305	1648.61484
 571.68919	1693.67016
 571.88531	1722.34172
 572.08141	1685.47828
 572.27751	1611.75141
 572.47358	1654.75875
 572.66965	1755.10922
 572.86570	1681.38234
 573.06174	1654.75875
 573.25776	1677.28641
 573.45377	1654.75875
 573.64977	1601.51156
 573.84575	1712.10188
 574.04172	1673.19047
 574.23768	1638.37500
 574.43362	1701.86203
 574.62955	1662.95062
 574.82546	1642.47094
 575.02136	1689.57422
 575.21725	1654.75875
 575.41312	1728.48563
 575.60898	1648.61484
 575.80483	1714.14984
 576.00066	1646.56687
 576.19648	1701.86203
 576.39229	1636.32703
 576.58808	1697.76609
 576.78385	1744.86937
 576.97962	1648.61484
 577.17537	1705.95797
 577.37111	1687.52625
 577.56683	1705.95797
 577.76254	1693.67016
 577.95823	1644.51891
 578.15391	1660.90266
 578.34958	1662.95062
 578.54524	1669.09453
 578.74088	1691.62219
 578.93650	1644.51891
 579.13212	1679.33437
 579.32772	1718.24578
 579.52330	1720.29375
 579.71887	1710.05391
 579.91443	1716.19781
 580.10997	1714.14984
 580.30550	1744.86937
 580.50102	1693.67016
 580.69652	1687.52625
 580.89201	1583.07984
 581.08749	1632.23109
 581.28295	1705.95797
 581.47840	1716.19781
 581.67383	1656.80672
 581.86925	1681.38234
 582.06466	1697.76609
 582.26005	1689.57422
 582.45543	1648.61484
 582.65080	1689.57422
 582.84615	1640.42297
 583.04149	1652.71078
 583.23681	1718.24578
 583.43212	1581.03187
 583.62742	1683.43031
 583.82270	1708.00594
 584.01797	1685.47828
 584.21322	1675.23844
 584.40846	1671.14250
 584.60369	1681.38234
 584.79890	1650.66281
 584.99410	1619.94328
 585.18929	1642.47094
 585.38446	1646.56687
 585.57962	1685.47828
 585.77476	1689.57422
 585.96989	1656.80672
 586.16501	1763.30109
 586.36011	1708.00594
 586.55520	1703.91000
 586.75028	1675.23844
 586.94534	1630.18313
 587.14039	1679.33437
 587.33542	1656.80672
 587.53044	1648.61484
 587.72545	1658.85469
 587.92044	1533.92859
 588.11542	1734.62953
 588.31038	1644.51891
 588.50533	1667.04656
 588.70027	1558.50422
 588.89519	1589.22375
 589.09010	1558.50422
 589.28499	1656.80672
 589.47988	1595.36766
 589.67474	1646.56687
 589.86960	1667.04656
 590.06444	1632.23109
 590.25926	1638.37500
 590.45407	1656.80672
 590.64887	1667.04656
 590.84366	1646.56687
 591.03843	1628.13516
 591.23318	1605.60750
 591.42792	1648.61484
 591.62265	1716.19781
 591.81737	1585.12781
 592.01207	1714.14984
 592.20676	1597.41563
 592.40143	1640.42297
 592.59609	1640.42297
 592.79073	1615.84734
 592.98536	1708.00594
 593.17998	1662.95062
 593.37458	1638.37500
 593.56917	1675.23844
 593.76375	1716.19781
 593.95831	1583.07984
 594.15286	1660.90266
 594.34739	1683.43031
 594.54191	1685.47828
 594.73642	1662.95062
 594.93091	1634.27906
 595.12539	1626.08719
 595.31985	1628.13516
 595.51430	1712.10188
 595.70874	1630.18313
 595.90316	1607.65547
 596.09757	1662.95062
 596.29196	1615.84734
 596.48634	1589.22375
 596.68071	1703.91000
 596.87506	1605.60750
 597.06940	1681.38234
 597.26372	1681.38234
 597.45803	1673.19047
 597.65233	1597.41563
 597.84661	1617.89531
 598.04088	1619.94328
 598.23513	1591.27172
 598.42937	1638.37500
 598.62360	1632.23109
 598.81781	1589.22375
 599.01201	1617.89531
 599.20619	1640.42297
 599.40037	1669.09453
 599.59452	1681.38234
 599.78866	1646.56687
 599.98279	1652.71078
 600.17691	1646.56687
 600.37101	1634.27906
 600.56509	1619.94328
 600.75917	1650.66281
 600.95322	1617.89531
 601.14727	1644.51891
 601.34130	1761.25312
 601.53531	1638.37500
 601.72932	1617.89531
 601.92331	1640.42297
 602.11728	1619.94328
 602.31124	1667.04656
 602.50519	1624.03922
 602.69912	1630.18313
 602.89304	1652.71078
 603.08694	1664.99859
 603.28083	1652.71078
 603.47471	1683.43031
 603.66857	1605.60750
 603.86241	1677.28641
 604.05625	1679.33437
 604.25007	1660.90266
 604.44387	1691.62219
 604.63767	1595.36766
 604.83144	1613.79938
 605.02521	1650.66281
 605.21896	1671.14250
 605.41269	1568.74406
 605.60641	1603.55953
 605.80012	1562.60016
 605.99381	1683.43031
 606.18749	1626.08719
 606.38115	1609.70344
 606.57481	1658.85469
 606.76844	1599.46359
 606.96206	1578.98391
 607.15567	1642.47094
 607.34927	1603.55953
 607.54285	1628.13516
 607.73641	1673.19047
 607.92997	1624.03922
 608.12350	1544.16844
 608.31703	1652.71078
 608.51054	1552.36031
 608.70403	1572.84000
 608.89751	1615.84734
 609.09098	1675.23844
 609.28443	1642.47094
 609.47787	1710.05391
 609.67130	1617.89531
 609.86471	1628.13516
 610.05810	1609.70344
 610.25149	1658.85469
 610.44485	1609.70344
 610.63821	1640.42297
 610.83155	1695.71813
 611.02487	1630.18313
 611.21819	1581.03187
 611.41148	1664.99859
 611.60477	1613.79938
 611.79804	1648.61484
 611.99129	1595.36766
 612.18453	1638.37500
 612.37776	1626.08719
 612.57097	1669.09453
 612.76417	1626.08719
 612.95735	1558.50422
 613.15052	1673.19047
 613.34368	1562.60016
 613.53682	1679.33437
 613.72995	1617.89531
 613.92306	1646.56687
 614.11616	1644.51891
 614.30925	1576.93594
 614.50232	1671.14250
 614.69537	1613.79938
 614.88842	1593.31969
 615.08144	1675.23844
 615.27446	1613.79938
 615.46746	1648.61484
 615.66044	1628.13516
 615.85341	1624.03922
 616.04637	1636.32703
 616.23931	1621.99125
 616.43224	1548.26437
 616.62516	1644.51891
 616.81806	1683.43031
 617.01094	1583.07984
 617.20381	1658.85469
 617.39667	1630.18313
 617.58951	1617.89531
 617.78234	1624.03922
 617.97516	1636.32703
 618.16796	1581.03187
 618.36074	1654.75875
 618.55352	1683.43031
 618.74627	1578.98391
 618.93902	1558.50422
 619.13175	1650.66281
 619.32446	1609.70344
 619.51716	1562.60016
 619.70985	1603.55953
 619.90252	1562.60016
 620.09518	1626.08719
 620.28782	1601.51156
 620.48045	1572.84000
 620.67307	1531.88063
 620.86567	1630.18313
 621.05825	1628.13516
 621.25083	1669.09453
 621.44338	1667.04656
 621.63593	1667.04656
 621.82846	1603.55953
 622.02097	1585.12781
 622.21347	1548.26437
 622.40596	1572.84000
 622.59843	1624.03922
 622.79089	1593.31969
 622.98333	1576.93594
 623.17576	1685.47828
 623.36818	1650.66281
 623.56058	1562.60016
 623.75296	1583.07984
 623.94534	1597.41563
 624.13769	1628.13516
 624.33004	1613.79938
 624.52237	1605.60750
 624.71468	1574.88797
 624.90698	1609.70344
 625.09927	1591.27172
 625.29154	1548.26437
 625.48380	1599.46359
 625.67604	1570.79203
 625.86827	1568.74406
 626.06048	1581.03187
 626.25268	1613.79938
 626.44487	1648.61484
 626.63704	1613.79938
 626.82919	1595.36766
 627.02134	1546.21641
 627.21347	1560.55219
 627.40558	1552.36031
 627.59768	1599.46359
 627.78976	1587.17578
 627.98183	1552.36031
 628.17389	1566.69609
 628.36593	1593.31969
 628.55796	1603.55953
 628.74997	1587.17578
 628.94197	1613.79938
 629.13396	1667.04656
 629.32593	1513.44891
 629.51788	1574.88797
 629.70982	1634.27906
 629.90175	1570.79203
 630.09366	1646.56687
 630.28556	1609.70344
 630.47744	1556.45625
 630.66931	1607.65547
 630.86117	1585.12781
 631.05301	1671.14250
 631.24483	1601.51156
 631.43664	1634.27906
 631.62844	1628.13516
 631.82022	1585.12781
 632.01199	1552.36031
 632.20375	1531.88063
 632.39549	1650.66281
 632.58721	1615.84734
 632.77892	1585.12781
 632.97062	1607.65547
 633.16230	1619.94328
 633.35397	1560.55219
 633.54562	1609.70344
 633.73726	1640.42297
 633.92888	1601.51156
 634.12049	1611.75141
 634.31209	1591.27172
 634.50367	1632.23109
 634.69523	1513.44891
 634.88678	1611.75141
 635.07832	1574.88797
 635.26984	1568.74406
 635.46135	1583.07984
 635.65285	1636.32703
 635.84432	1607.65547
 636.03579	1585.12781
 636.22724	1589.22375
 636.41868	1578.98391
 636.61010	1556.45625
 636.80150	1519.59281
 636.99290	1595.36766
 637.18427	1576.93594
 637.37564	1554.40828
 637.56699	1560.55219
 637.75832	1581.03187
 637.94964	1630.18313
 638.14094	1601.51156
 638.33224	1578.98391
 638.52351	1634.27906
 638.71477	1542.12047
 638.90602	1609.70344
 639.09725	1701.86203
 639.28847	1572.84000
 639.47968	1621.99125
 639.67086	1576.93594
 639.86204	1656.80672
 640.05320	1581.03187
 640.24434	1597.41563
 640.43548	1591.27172
 640.62659	1556.45625
 640.81769	1576.93594
 641.00878	1656.80672
 641.19985	1669.09453
 641.39091	1578.98391
 641.58196	1585.12781
 641.77299	1599.46359
 641.96400	1613.79938
 642.15500	1585.12781
 642.34599	1568.74406
 642.53696	1535.97656
 642.72791	1609.70344
 642.91885	1581.03187
 643.10978	1578.98391
 643.30069	1597.41563
 643.49159	1583.07984
 643.68248	1589.22375
 643.87335	1634.27906
 644.06420	1519.59281
 644.25504	1613.79938
 644.44586	1521.64078
 644.63668	1587.17578
 644.82747	1554.40828
 645.01825	1605.60750
 645.20902	1570.79203
 645.39977	1587.17578
 645.59051	1495.01719
 645.78123	1591.27172
 645.97194	1621.99125
 646.16263	1617.89531
 646.35331	1578.98391
 646.54398	1601.51156
 646.73463	1515.49688
 646.92526	1568.74406
 647.11588	1664.99859
 647.30649	1619.94328
 647.49708	1527.78469
 647.68766	1560.55219
 647.87822	1576.93594
 648.06877	1533.92859
 648.25930	1445.86594
 648.44982	1521.64078
 648.64032	1531.88063
 648.83081	1521.64078
 649.02129	1574.88797
 649.21174	1562.60016
 649.40219	1568.74406
 649.59262	1517.54484
 649.78304	1533.92859
 649.97344	1548.26437
 650.16382	1574.88797
 650.35419	1552.36031
 650.54455	1556.45625
 650.73489	1603.55953
 650.92522	1562.60016
 651.11553	1560.55219
 651.30583	1607.65547
 651.49612	1554.40828
 651.68639	1550.31234
 651.87664	1572.84000
 652.06688	1503.20906
 652.25710	1576.93594
 652.44731	1505.25703
 652.63751	1589.22375
 652.82769	1572.84000
 653.01786	1646.56687
 653.20801	1564.64812
 653.39814	1574.88797
 653.58827	1597.41563
 653.77837	1535.97656
 653.96847	1634.27906
 654.15854	1540.07250
 654.34861	1531.88063
 654.53866	1548.26437
 654.72869	1529.83266
 654.91871	1554.40828
 655.10871	1589.22375
 655.29870	1523.68875
 655.48868	1581.03187
 655.67864	1531.88063
 655.86858	1581.03187
 656.05851	1509.35297
 656.24843	1581.03187
 656.43833	1527.78469
 656.62821	1542.12047
 656.81809	1566.69609
 657.00794	1572.84000
 657.19778	1591.27172
 657.38761	1490.92125
 657.57742	1529.83266
 657.76722	1583.07984
 657.95700	1613.79938
 658.14677	1587.17578
 658.33653	1535.97656
 658.52626	1597.41563
 658.71599	1540.07250
 658.90570	1533.92859
 659.09539	1544.16844
 659.28507	1533.92859
 659.47474	1540.07250
 659.66439	1576.93594
 659.85402	1529.83266
 660.04364	1531.88063
 660.23325	1587.17578
 660.42284	1581.03187
 660.61241	1568.74406
 660.80197	1591.27172
 660.99152	1527.78469
 661.18105	1581.03187
 661.37057	1538.02453
 661.56007	1572.84000
 661.74956	1542.12047
 661.93903	1587.17578
 662.12849	1636.32703
 662.31793	1523.68875
 662.50736	1587.17578
 662.69677	1550.31234
 662.88617	1562.60016
 663.07555	1544.16844
 663.26492	1589.22375
 663.45427	1519.59281
 663.64361	1601.51156
 663.83294	1511.40094
 664.02224	1558.50422
 664.21154	1562.60016
 664.40082	1531.88063
 664.59008	1527.78469
 664.77933	1609.70344
 664.96857	1507.30500
 665.15779	1552.36031
 665.34699	1638.37500
 665.53618	1515.49688
 665.72536	1542.12047
 665.91452	1525.73672
 666.10366	1601.51156
 666.29279	1613.79938
 666.48191	1583.07984
 666.67101	1578.98391
 666.86010	1599.46359
 667.04917	1531.88063
 667.23822	1538.02453
 667.42726	1533.92859
 667.61629	1495.01719
 667.80530	1552.36031
 667.99430	1497.06516
 668.18328	1507.30500
 668.37225	1501.16109
 668.56120	1488.87328
 668.75014	1619.94328
 668.93906	1548.26437
 669.12796	1550.31234
 669.31686	1527.78469
 669.50573	1566.69609
 669.69460	1558.50422
 669.88344	1599.46359
 670.07228	1525.73672
 670.26109	1513.44891
 670.44990	1542.12047
 670.63868	1531.88063
 670.82746	1552.36031
 671.01621	1486.82531
 671.20496	1507.30500
 671.39369	1511.40094
 671.58240	1585.12781
 671.77110	1515.49688
 671.95978	1568.74406
 672.14845	1499.11313
 672.33710	1589.22375
 672.52574	1542.12047
 672.71436	1599.46359
 672.90297	1529.83266
 673.09156	1558.50422
 673.28014	1546.21641
 673.46871	1521.64078
 673.65725	1499.11313
 673.84579	1492.96922
 674.03431	1540.07250
 674.22281	1527.78469
 674.41130	1538.02453
 674.59977	1548.26437
 674.78823	1593.31969
 674.97667	1533.92859
 675.16510	1578.98391
 675.35351	1486.82531
 675.54191	1546.21641
 675.73030	1515.49688
 675.91867	1495.01719
 676.10702	1507.30500
 676.29536	1474.53750
 676.48368	1458.15375
 676.67199	1576.93594
 676.86028	1519.59281
 677.04856	1484.77734
 677.23682	1564.64812
 677.42507	1529.83266
 677.61331	1421.29031
 677.80152	1572.84000
 677.98973	1452.00984
 678.17791	1542.12047
 678.36609	1564.64812
 678.55425	1474.53750
 678.74239	1478.63344
 678.93052	1552.36031
 679.11863	1603.55953
 679.30673	1587.17578
 679.49481	1482.72937
 679.68288	1519.59281
 679.87093	1499.11313
 680.05897	1560.55219
 680.24699	1570.79203
 680.43500	1533.92859
 680.62299	1480.68141
 680.81097	1519.59281
 680.99893	1519.59281
 681.18688	1556.45625
 681.37481	1527.78469
 681.56273	1470.44156
 681.75063	1587.17578
 681.93852	1556.45625
 682.12639	1495.01719
 682.31424	1511.40094
 682.50209	1544.16844
 682.68991	1548.26437
 682.87772	1529.83266
 683.06552	1576.93594
 683.25330	1546.21641
 683.44107	1449.96187
 683.62882	1533.92859
 683.81655	1578.98391
 684.00428	1519.59281
 684.19198	1538.02453
 684.37967	1507.30500
 684.56735	1548.26437
 684.75501	1564.64812
 684.94265	1556.45625
 685.13028	1497.06516
 685.31790	1472.48953
 685.50550	1503.20906
 685.69308	1495.01719
 685.88065	1533.92859
 686.06820	1484.77734
 686.25574	1507.30500
 686.44327	1570.79203
 686.63078	1409.00250
 686.81827	1476.58547
 687.00575	1458.15375
 687.19321	1484.77734
 687.38066	1523.68875
 687.56809	1544.16844
 687.75551	1556.45625
 687.94291	1538.02453
 688.13030	1499.11313
 688.31767	1505.25703
 688.50503	1484.77734
 688.69237	1478.63344
 688.87970	1490.92125
 689.06701	1548.26437
 689.25431	1515.49688
 689.44159	1525.73672
 689.62886	1554.40828
 689.81611	1497.06516
 690.00334	1503.20906
 690.19056	1505.25703
 690.37777	1478.63344
 690.56496	1476.58547
 690.75213	1574.88797
 690.93929	1572.84000
 691.12644	1476.58547
 691.31357	1447.91391
 691.50068	1523.68875
 691.68778	1460.20172
 691.87486	1495.01719
 692.06193	1452.00984
 692.24898	1499.11313
 692.43602	1509.35297
 692.62305	1476.58547
 692.81005	1540.07250
 692.99705	1548.26437
 693.18402	1499.11313
 693.37098	1505.25703
 693.55793	1615.84734
 693.74486	1509.35297
 693.93178	1484.77734
 694.11868	1484.77734
 694.30556	1495.01719
 694.49243	1470.44156
 694.67929	1505.25703
 694.86613	1523.68875
 695.05295	1492.96922
 695.23976	1505.25703
 695.42656	1546.21641
 695.61334	1515.49688
 695.80010	1578.98391
 695.98685	1517.54484
 696.17358	1474.53750
 696.36030	1458.15375
 696.54700	1564.64812
 696.73369	1521.64078
 696.92036	1540.07250
 697.10701	1509.35297
 697.29366	1499.11313
 697.48028	1515.49688
 697.66689	1546.21641
 697.85349	1454.05781
 698.04007	1570.79203
 698.22663	1544.16844
 698.41318	1507.30500
 698.59971	1480.68141
 698.78623	1449.96187
 698.97274	1566.69609
 699.15922	1507.30500
 699.34570	1570.79203
 699.53215	1519.59281
 699.71860	1503.20906
 699.90502	1523.68875
 700.09143	1427.43422
 700.27783	1472.48953
 700.46421	1511.40094
 700.65058	1535.97656
 700.83693	1464.29766
 701.02326	1462.24969
 701.20958	1511.40094
 701.39588	1484.77734
 701.58217	1517.54484
 701.76845	1486.82531
 701.95470	1468.39359
 702.14095	1488.87328
 702.32717	1492.96922
 702.51339	1574.88797
 702.69958	1519.59281
 702.88576	1501.16109
 703.07193	1523.68875
 703.25808	1548.26437
 703.44421	1509.35297
 703.63033	1484.77734
 703.81644	1564.64812
 704.00253	1497.06516
 704.18860	1568.74406
 704.37466	1499.11313
 704.56070	1562.60016
 704.74673	1484.77734
 704.93274	1527.78469
 705.11874	1488.87328
 705.30472	1505.25703
 705.49068	1482.72937
 705.67663	1488.87328
 705.86257	1525.73672
 706.04849	1454.05781
 706.23439	1466.34562
 706.42028	1488.87328
 706.60615	1574.88797
 706.79201	1445.86594
 706.97785	1462.24969
 707.16368	1497.06516
 707.34949	1468.39359
 707.53529	1456.10578
 707.72107	1495.01719
 707.90683	1544.16844
 708.09258	1497.06516
 708.27832	1605.60750
 708.46404	1597.41563
 708.64974	1527.78469
 708.83543	1507.30500
 709.02110	1564.64812
 709.20676	1513.44891
 709.39240	1548.26437
 709.57803	1482.72937
 709.76364	1515.49688
 709.94923	1505.25703
 710.13481	1519.59281
 710.32038	1554.40828
 710.50592	1531.88063
 710.69146	1546.21641
 710.87697	1531.88063
 711.06248	1542.12047
 711.24796	1560.55219
 711.43344	1535.97656
 711.61889	1488.87328
 711.80433	1525.73672
 711.98976	1445.86594
 712.17517	1447.91391
 712.36056	1515.49688
 712.54594	1521.64078
 712.73130	1552.36031
 712.91665	1456.10578
 713.10198	1497.06516
 713.28730	1503.20906
 713.47260	1470.44156
 713.65788	1517.54484
 713.84315	1519.59281
 714.02841	1480.68141
 714.21365	1533.92859
 714.39887	1478.63344
 714.58408	1468.39359
 714.76927	1527.78469
 714.95445	1542.12047
 715.13961	1486.82531
 715.32475	1552.36031
 715.50988	1478.63344
 715.69500	1425.38625
 715.88010	1578.98391
 716.06518	1427.43422
 716.25025	1495.01719
 716.43530	1443.81797
 716.62034	1427.43422
 716.80536	1462.24969
 716.99036	1464.29766
 717.17535	1503.20906
 717.36033	1409.00250
 717.54529	1474.53750
 717.73023	1488.87328
 717.91516	1503.20906
 718.10007	1417.19438
 718.28497	1466.34562
 718.46985	1476.58547
 718.65471	1566.69609
 718.83956	1519.59281
 719.02440	1447.91391
 719.20921	1519.59281
 719.39402	1443.81797
 719.57881	1511.40094
 719.76358	1458.15375
 719.94833	1474.53750
 720.13307	1421.29031
 720.31780	1511.40094
 720.50251	1484.77734
 720.68720	1472.48953
 720.87188	1454.05781
 721.05654	1486.82531
 721.24119	1529.83266
 721.42582	1505.25703
 721.61044	1497.06516
 721.79504	1402.85859
 721.97962	1454.05781
 722.16419	1464.29766
 722.34874	1501.16109
 722.53328	1427.43422
 722.71780	1458.15375
 722.90231	1564.64812
 723.08680	1482.72937
 723.27128	1519.59281
 723.45574	1525.73672
 723.64018	1480.68141
 723.82461	1486.82531
 724.00902	1480.68141
 724.19342	1564.64812
 724.37780	1482.72937
 724.56216	1523.68875
 724.74651	1400.81063
 724.93085	1458.15375
 725.11516	1501.16109
 725.29947	1507.30500
 725.48375	1445.86594
 725.66803	1535.97656
 725.85228	1421.29031
 726.03652	1527.78469
 726.22075	1484.77734
 726.40495	1431.53016
 726.58915	1443.81797
 726.77332	1478.63344
 726.95749	1472.48953
 727.14163	1445.86594
 727.32576	1464.29766
 727.50988	1490.92125
 727.69398	1515.49688
 727.87806	1425.38625
 728.06213	1521.64078
 728.24618	1468.39359
 728.43021	1480.68141
 728.61423	1447.91391
 728.79824	1484.77734
 728.98223	1525.73672
 729.16620	1495.01719
 729.35016	1505.25703
 729.53410	1480.68141
 729.71802	1439.72203
 729.90193	1452.00984
 730.08583	1482.72937
 730.26971	1507.30500
 730.45357	1443.81797
 730.63742	1445.86594
 730.82125	1439.72203
 731.00506	1529.83266
 731.18886	1425.38625
 731.37265	1495.01719
 731.55642	1544.16844
 731.74017	1495.01719
 731.92391	1519.59281
 732.10763	1439.72203
 732.29133	1390.57078
 732.47502	1480.68141
 732.65869	1550.31234
 732.84235	1533.92859
 733.02599	1454.05781
 733.20962	1509.35297
 733.39323	1425.38625
 733.57683	1474.53750
 733.76041	1486.82531
 733.94397	1472.48953
 734.12752	1437.67406
 734.31105	1540.07250
 734.49456	1441.77000
 734.67806	1511.40094
 734.86155	1474.53750
 735.04502	1535.97656
 735.22847	1568.74406
 735.41191	1505.25703
 735.59533	1517.54484
 735.77873	1507.30500
 735.96212	1521.64078
 736.14549	1527.78469
 736.32885	1501.16109
 736.51219	1507.30500
 736.69552	1544.16844
 736.87883	1527.78469
 737.06212	1482.72937
 737.24540	1480.68141
 737.42867	1495.01719
 737.61191	1552.36031
 737.79514	1456.10578
 737.97836	1462.24969
 738.16156	1443.81797
 738.34474	1480.68141
 738.52791	1540.07250
 738.71106	1458.15375
 738.89420	1470.44156
 739.07732	1460.20172
 739.26042	1550.31234
 739.44351	1441.77000
 739.62658	1501.16109
 739.80964	1490.92125
 739.99268	1470.44156
 740.17570	1480.68141
 740.35871	1515.49688
 740.54170	1519.59281
 740.72468	1435.62609
 740.90764	1531.88063
 741.09059	1482.72937
 741.27352	1523.68875
 741.45643	1484.77734
 741.63933	1486.82531
 741.82221	1454.05781
 742.00508	1468.39359
 742.18793	1468.39359
 742.37076	1544.16844
 742.55358	1480.68141
 742.73638	1511.40094
 742.91917	1468.39359
 743.10194	1402.85859
 743.28469	1527.78469
 743.46743	1492.96922
 743.65015	1513.44891
 743.83286	1535.97656
 744.01555	1499.11313
 744.19822	1544.16844
 744.38088	1519.59281
 744.56353	1484.77734
 744.74615	1525.73672
 744.92876	1478.63344
 745.11136	1519.59281
 745.29394	1468.39359
 745.47650	1474.53750
 745.65905	1509.35297
 745.84158	1470.44156
 746.02409	1488.87328
 746.20659	1425.38625
 746.38908	1462.24969
 746.57154	1529.83266
 746.75400	1472.48953
 746.93643	1511.40094
 747.11885	1542.12047
 747.30125	1490.92125
 747.48364	1570.79203
 747.66601	1523.68875
 747.84837	1527.78469
 748.03071	1507.30500
 748.21303	1554.40828
 748.39534	1597.41563
 748.57763	1521.64078
 748.75991	1511.40094
 748.94217	1521.64078
 749.12441	1478.63344
 749.30664	1533.92859
 749.48885	1470.44156
 749.67104	1505.25703
 749.85322	1472.48953
 750.03539	1509.35297
 750.21753	1490.92125
 750.39967	1546.21641
 750.58178	1490.92125
 750.76388	1535.97656
 750.94596	1474.53750
 751.12803	1468.39359
 751.31008	1503.20906
 751.49212	1490.92125
 751.67414	1486.82531
 751.85614	1462.24969
 752.03813	1535.97656
 752.22010	1480.68141
 752.40205	1413.09844
 752.58399	1437.67406
 752.76592	1597.41563
 752.94782	1478.63344
 753.12971	1503.20906
 753.31159	1423.33828
 753.49345	1441.77000
 753.67529	1533.92859
 753.85712	1523.68875
 754.03893	1470.44156
 754.22072	1507.30500
 754.40250	1488.87328
 754.58426	1413.09844
 754.76601	1511.40094
 754.94774	1503.20906
 755.12945	1492.96922
 755.31115	1507.30500
 755.49283	1492.96922
 755.67450	1454.05781
 755.85615	1552.36031
 756.03778	1460.20172
 756.21940	1472.48953
 756.40100	1525.73672
 756.58259	1480.68141
 756.76416	1449.96187
 756.94571	1486.82531
 757.12725	1439.72203
 757.30877	1531.88063
 757.49027	1468.39359
 757.67176	1480.68141
 757.85323	1548.26437
 758.03469	1472.48953
 758.21613	1429.48219
 758.39755	1562.60016
 758.57896	1484.77734
 758.76035	1472.48953
 758.94173	1484.77734
 759.12309	1478.63344
 759.30443	1452.00984
 759.48576	1503.20906
 759.66707	1443.81797
 759.84837	1454.05781
 760.02965	1482.72937
 760.21091	1456.10578
 760.39215	1474.53750
 760.57339	1462.24969
 760.75460	1396.71469
 760.93580	1472.48953
 761.11698	1431.53016
 761.29815	1511.40094
 761.47929	1456.10578
 761.66043	1513.44891
 761.84155	1482.72937
 762.02265	1454.05781
 762.20373	1396.71469
 762.38480	1488.87328
 762.56585	1458.15375
 762.74689	1374.18703
 762.92791	1431.53016
 763.10891	1433.57812
 763.28990	1486.82531
 763.47087	1454.05781
 763.65183	1419.24234
 763.83277	1437.67406
 764.01369	1468.39359
 764.19460	1402.85859
 764.37549	1484.77734
 764.55636	1499.11313
 764.73722	1468.39359
 764.91806	1456.10578
 765.09889	1462.24969
 765.27969	1503.20906
 765.46049	1427.43422
 765.64126	1435.62609
 765.82202	1462.24969
 766.00277	1462.24969
 766.18350	1490.92125
 766.36421	1513.44891
 766.54491	1511.40094
 766.72558	1464.29766
 766.90625	1480.68141
 767.08689	1409.00250
 767.26753	1462.24969
 767.44814	1433.57812
 767.62874	1497.06516
 767.80932	1472.48953
 767.98989	1449.96187
 768.17043	1454.05781
 768.35097	1482.72937
 768.53148	1482.72937
 768.71199	1535.97656
 768.89247	1466.34562
 769.07294	1468.39359
 769.25339	1523.68875
 769.43382	1478.63344
 769.61424	1542.12047
 769.79465	1499.11313
 769.97503	1454.05781
 770.15540	1509.35297
 770.33576	1505.25703
 770.51609	1429.48219
 770.69642	1478.63344
 770.87672	1535.97656
 771.05701	1486.82531
 771.23728	1488.87328
 771.41754	1452.00984
 771.59778	1482.72937
 771.77800	1472.48953
 771.95821	1495.01719
 772.13840	1492.96922
 772.31857	1490.92125
 772.49873	1460.20172
 772.67887	1441.77000
 772.85900	1511.40094
 773.03911	1542.12047
 773.21920	1486.82531
 773.39928	1417.19438
 773.57934	1419.24234
 773.75938	1449.96187
 773.93941	1484.77734
 774.11942	1482.72937
 774.29942	1478.63344
 774.47939	1466.34562
 774.65936	1554.40828
 774.83930	1486.82531
 775.01923	1540.07250
 775.19914	1495.01719
 775.37904	1466.34562
 775.55892	1511.40094
 775.73879	1521.64078
 775.91863	1441.77000
 776.09846	1552.36031
 776.27828	1437.67406
 776.45808	1525.73672
 776.63786	1441.77000
 776.81762	1525.73672
 776.99737	1400.81063
 777.17711	1490.92125
 777.35682	1466.34562
 777.53652	1484.77734
 777.71621	1390.57078
 777.89587	1484.77734
 778.07553	1464.29766
 778.25516	1533.92859
 778.43478	1533.92859
 778.61438	1499.11313
 778.79396	1411.05047
 778.97353	1488.87328
 779.15309	1470.44156
 779.33262	1499.11313
 779.51214	1476.58547
 779.69164	1499.11313
 779.87113	1470.44156
 780.05060	1462.24969
 780.23005	1495.01719
 780.40949	1501.16109
 780.58891	1517.54484
 780.76832	1499.11313
 780.94771	1462.24969
 781.12708	1482.72937
 781.30643	1460.20172
 781.48577	1456.10578
 781.66509	1411.05047
 781.84440	1509.35297
 782.02369	1443.81797
 782.20296	1513.44891
 782.38222	1529.83266
 782.56146	1458.15375
 782.74068	1515.49688
 782.91989	1423.33828
 783.09908	1441.77000
 783.27825	1486.82531
 783.45741	1470.44156
 783.63655	1523.68875
 783.81567	1466.34562
 783.99478	1466.34562
 784.17387	1497.06516
 784.35295	1513.44891
 784.53201	1443.81797
 784.71105	1495.01719
 784.89008	1499.11313
 785.06908	1519.59281
 785.24808	1445.86594
 785.42705	1437.67406
 785.60601	1478.63344
 785.78496	1437.67406
 785.96388	1452.00984
 786.14279	1472.48953
 786.32169	1464.29766
 786.50056	1511.40094
 786.67942	1478.63344
 786.85827	1474.53750
 787.03709	1474.53750
 787.21590	1441.77000
 787.39470	1511.40094
 787.57348	1458.15375
 787.75224	1562.60016
 787.93098	1501.16109
 788.10971	1435.62609
 788.28842	1454.05781
 788.46712	1359.85125
 788.64580	1509.35297
 788.82446	1482.72937
 789.00310	1470.44156
 789.18173	1501.16109
 789.36034	1495.01719
 789.53894	1529.83266
 789.71752	1484.77734
 789.89608	1480.68141
 790.07463	1515.49688
 790.25316	1449.96187
 790.43167	1511.40094
 790.61017	1472.48953
 790.78865	1466.34562
 790.96711	1466.34562
 791.14556	1492.96922
 791.32398	1466.34562
 791.50240	1466.34562
 791.68079	1423.33828
 791.85917	1456.10578
 792.03754	1429.48219
 792.21589	1449.96187
 792.39422	1466.34562
 792.57253	1437.67406
 792.75083	1427.43422
 792.92911	1517.54484
 793.10737	1482.72937
 793.28562	1476.58547
 793.46385	1402.85859
 793.64206	1458.15375
 793.82026	1519.59281
 793.99844	1458.15375
 794.17660	1456.10578
 794.35475	1427.43422
 794.53288	1525.73672
 794.71100	1447.91391
 794.88909	1492.96922
 795.06717	1406.95453
 795.24524	1406.95453
 795.42329	1517.54484
 795.60132	1482.72937
 795.77933	1535.97656
 795.95733	1460.20172
 796.13531	1538.02453
 796.31327	1482.72937
 796.49122	1474.53750
 796.66915	1419.24234
 796.84707	1458.15375
 797.02497	1488.87328
 797.20285	1472.48953
 797.38071	1462.24969
 797.55856	1490.92125
 797.73639	1441.77000
 797.91420	1458.15375
 798.09200	1482.72937
 798.26978	1515.49688
 798.44755	1468.39359
 798.62529	1480.68141
 798.80302	1480.68141
 798.98074	1462.24969
 799.15844	1472.48953
 799.33612	1499.11313
 799.51378	1462.24969
 799.69143	1425.38625
 799.86906	1417.19438
 800.04667	1452.00984
 800.22427	1363.94719
 800.40185	1409.00250
 800.57941	1490.92125
 800.75696	1419.24234
 800.93449	1495.01719
 801.11200	1535.97656
 801.28950	1476.58547
 801.46698	1429.48219
 801.64444	1495.01719
 801.82189	1466.34562
 801.99932	1433.57812
 802.17673	1413.09844
 802.35413	1441.77000
 802.53151	1431.53016
 802.70887	1470.44156
 802.88622	1431.53016
 803.06355	1443.81797
 803.24086	1466.34562
 803.41815	1454.05781
 803.59543	1464.29766
 803.77270	1474.53750
 803.94994	1437.67406
 804.12717	1503.20906
 804.30438	1458.15375
 804.48158	1449.96187
 804.65876	1517.54484
 804.83592	1515.49688
 805.01306	1445.86594
 805.19019	1468.39359
 805.36730	1458.15375
 805.54440	1380.33094
 805.72147	1466.34562
 805.89853	1404.90656
 806.07558	1517.54484
 806.25260	1482.72937
 806.42962	1478.63344
 806.60661	1406.95453
 806.78359	1488.87328
 806.96055	1425.38625
 807.13749	1425.38625
 807.31441	1464.29766
 807.49132	1507.30500
 807.66822	1431.53016
 807.84509	1513.44891
 808.02195	1505.25703
 808.19879	1515.49688
 808.37562	1427.43422
 808.55243	1484.77734
 808.72922	1476.58547
 808.90599	1519.59281
 809.08275	1476.58547
 809.25949	1533.92859
 809.43622	1431.53016
 809.61293	1411.05047
 809.78962	1521.64078
 809.96629	1466.34562
 810.14295	1425.38625
 810.31959	1497.06516
 810.49621	1398.76266
 810.67282	1400.81063
 810.84941	1386.47484
 811.02598	1406.95453
 811.20253	1521.64078
 811.37907	1433.57812
 811.55559	1417.19438
 811.73210	1441.77000
 811.90859	1503.20906
 812.08506	1474.53750
 812.26151	1470.44156
 812.43795	1495.01719
 812.61437	1458.15375
 812.79078	1468.39359
 812.96716	1441.77000
 813.14353	1443.81797
 813.31989	1431.53016
 813.49622	1380.33094
 813.67254	1484.77734
 813.84884	1513.44891
 814.02513	1468.39359
 814.20140	1382.37891
 814.37765	1484.77734
 814.55388	1482.72937
 814.73010	1449.96187
 814.90630	1445.86594
 815.08249	1441.77000
 815.25865	1361.89922
 815.43480	1454.05781
 815.61094	1495.01719
 815.78705	1429.48219
 815.96315	1476.58547
 816.13923	1464.29766
 816.31530	1486.82531
 816.49135	1470.44156
 816.66738	1443.81797
 816.84339	1415.14641
 817.01939	1533.92859
 817.19537	1433.57812
 817.37133	1415.14641
 817.54728	1398.76266
 817.72321	1454.05781
 817.89912	1431.53016
 818.07502	1423.33828
 818.25090	1558.50422
 818.42676	1505.25703
 818.60260	1452.00984
 818.77843	1505.25703
 818.95424	1468.39359
 819.13004	1394.66672
 819.30581	1443.81797
 819.48157	1503.20906
 819.65732	1419.24234
 819.83304	1443.81797
 820.00875	1398.76266
 820.18444	1519.59281
 820.36012	1406.95453
 820.53577	1503.20906
 820.71142	1462.24969
 820.88704	1495.01719
 821.06265	1441.77000
 821.23824	1402.85859
 821.41381	1466.34562
 821.58936	1492.96922
 821.76490	1413.09844
 821.94042	1406.95453
 822.11593	1423.33828
 822.29142	1486.82531
 822.46689	1390.57078
 822.64234	1413.09844
 822.81778	1456.10578
 822.99320	1419.24234
 823.16860	1445.86594
 823.34398	1509.35297
 823.51935	1421.29031
 823.69470	1466.34562
 823.87004	1386.47484
 824.04536	1523.68875
 824.22066	1458.15375
 824.39594	1441.77000
 824.57120	1447.91391
 824.74645	1468.39359
 824.92169	1460.20172
 825.09690	1511.40094
 825.27210	1486.82531
 825.44728	1482.72937
 825.62244	1419.24234
 825.79759	1433.57812
 825.97272	1452.00984
 826.14783	1425.38625
 826.32292	1478.63344
 826.49800	1447.91391
 826.67306	1466.34562
 826.84811	1439.72203
 827.02313	1439.72203
 827.19814	1452.00984
 827.37314	1476.58547
 827.54811	1425.38625
 827.72307	1462.24969
 827.89801	1396.71469
 828.07294	1384.42688
 828.24784	1439.72203
 828.42273	1388.52281
 828.59761	1490.92125
 828.77246	1431.53016
 828.94730	1470.44156
 829.12212	1484.77734
 829.29693	1452.00984
 829.47171	1392.61875
 829.64648	1454.05781
 829.82124	1439.72203
 829.99597	1409.00250
 830.17069	1421.29031
 830.34539	1490.92125
 830.52008	1388.52281
 830.69474	1523.68875
 830.86939	1499.11313
 831.04403	1359.85125
 831.21864	1437.67406
 831.39324	1419.24234
 831.56782	1413.09844
 831.74238	1470.44156
 831.91693	1447.91391
 832.09146	1361.89922
 832.26597	1386.47484
 832.44047	1546.21641
 832.61495	1474.53750
 832.78941	1466.34562
 832.96385	1460.20172
 833.13828	1423.33828
 833.31269	1501.16109
 833.48708	1456.10578
 833.66146	1515.49688
 833.83581	1472.48953
 834.01016	1488.87328
 834.18448	1384.42688
 834.35878	1484.77734
 834.53307	1427.43422
 834.70735	1515.49688
 834.88160	1384.42688
 835.05584	1447.91391
 835.23006	1470.44156
 835.40426	1445.86594
 835.57845	1359.85125
 835.75262	1470.44156
 835.92677	1425.38625
 836.10090	1482.72937
 836.27502	1386.47484
 836.44912	1466.34562
 836.62320	1400.81063
 836.79727	1462.24969
 836.97131	1478.63344
 837.14534	1495.01719
 837.31936	1402.85859
 837.49335	1554.40828
 837.66733	1423.33828
 837.84129	1460.20172
 838.01524	1406.95453
 838.18917	1429.48219
 838.36308	1472.48953
 838.53697	1499.11313
 838.71084	1468.39359
 838.88470	1421.29031
 839.05854	1476.58547
 839.23237	1441.77000
 839.40617	1363.94719
 839.57996	1443.81797
 839.75373	1374.18703
 839.92749	1445.86594
 840.10122	1449.96187
 840.27494	1421.29031
 840.44865	1417.19438
 840.62233	1427.43422
 840.79600	1503.20906
 840.96965	1392.61875
 841.14328	1476.58547
 841.31690	1425.38625
 841.49050	1429.48219
 841.66408	1376.23500
 841.83764	1460.20172
 842.01119	1400.81063
 842.18472	1435.62609
 842.35823	1400.81063
 842.53173	1421.29031
 842.70520	1474.53750
 842.87866	1460.20172
 843.05211	1447.91391
 843.22553	1478.63344
 843.39894	1470.44156
 843.57233	1429.48219
 843.74571	1437.67406
 843.91906	1378.28297
 844.09240	1449.96187
 844.26572	1507.30500
 844.43903	1417.19438
 844.61231	1445.86594
 844.78558	1406.95453
 844.95883	1447.91391
 845.13207	1433.57812
 845.30529	1480.68141
 845.47849	1423.33828
 845.65167	1437.67406
 845.82483	1452.00984
 845.99798	1423.33828
 846.17111	1458.15375
 846.34422	1445.86594
 846.51732	1386.47484
 846.69040	1458.15375
 846.86346	1431.53016
 847.03650	1427.43422
 847.20953	1374.18703
 847.38254	1441.77000
 847.55553	1464.29766
 847.72850	1439.72203
 847.90146	1447.91391
 848.07440	1417.19438
 848.24732	1427.43422
 848.42022	1476.58547
 848.59311	1462.24969
 848.76598	1437.67406
 848.93883	1433.57812
 849.11167	1419.24234
 849.28448	1443.81797
 849.45728	1378.28297
 849.63007	1478.63344
 849.80283	1365.99516
 849.97558	1404.90656
 850.14831	1433.57812
 850.32102	1409.00250
 850.49372	1470.44156
 850.66639	1402.85859
 850.83905	1406.95453
 851.01170	1458.15375
 851.18432	1417.19438
 851.35693	1456.10578
 851.52952	1431.53016
 851.70209	1406.95453
 851.87465	1423.33828
 852.04719	1482.72937
 852.21971	1513.44891
 852.39221	1441.77000
 852.56470	1517.54484
 852.73717	1413.09844
 852.90962	1472.48953
 853.08205	1437.67406
 853.25447	1456.10578
 853.42686	1460.20172
 853.59924	1458.15375
 853.77161	1431.53016
 853.94395	1409.00250
 854.11628	1443.81797
 854.28859	1394.66672
 854.46089	1480.68141
 854.63316	1435.62609
 854.80542	1423.33828
 854.97766	1404.90656
 855.14988	1378.28297
 855.32209	1443.81797
 855.49428	1351.65937
 855.66645	1435.62609
 855.83860	1406.95453
 856.01074	1421.29031
 856.18286	1468.39359
 856.35496	1421.29031
 856.52704	1466.34562
 856.69911	1368.04312
 856.87115	1404.90656
 857.04319	1452.00984
 857.21520	1413.09844
 857.38719	1376.23500
 857.55917	1390.57078
 857.73113	1435.62609
 857.90307	1476.58547
 858.07500	1441.77000
 858.24691	1359.85125
 858.41880	1452.00984
 858.59067	1429.48219
 858.76253	1400.81063
 858.93436	1382.37891
 859.10618	1482.72937
 859.27799	1400.81063
 859.44977	1382.37891
 859.62154	1452.00984
 859.79329	1449.96187
 859.96502	1492.96922
 860.13673	1460.20172
 860.30843	1445.86594
 860.48011	1476.58547
 860.65177	1454.05781
 860.82342	1480.68141
 860.99504	1394.66672
 861.16665	1402.85859
 861.33824	1415.14641
 861.50982	1425.38625
 861.68137	1419.24234
 861.85291	1421.29031
 862.02443	1409.00250
 862.19594	1458.15375
 862.36742	1468.39359
 862.53889	1507.30500
 862.71034	1452.00984
 862.88177	1415.14641
 863.05319	1486.82531
 863.22459	1388.52281
 863.39597	1447.91391
 863.56733	1462.24969
 863.73867	1472.48953
 863.91000	1466.34562
 864.08131	1501.16109
 864.25260	1478.63344
 864.42388	1380.33094
 864.59513	1431.53016
 864.76637	1447.91391
 864.93759	1456.10578
 865.10880	1456.10578
 865.27998	1427.43422
 865.45115	1466.34562
 865.62230	1406.95453
 865.79343	1513.44891
 865.96455	1390.57078
 866.13565	1411.05047
 866.30673	1398.76266
 866.47779	1388.52281
 866.64883	1470.44156
 866.81986	1449.96187
 866.99087	1415.14641
 867.16186	1421.29031
 867.33283	1462.24969
 867.50379	1413.09844
 867.67473	1400.81063
 867.84565	1468.39359
 868.01655	1447.91391
 868.18744	1445.86594
 868.35831	1486.82531
 868.52916	1441.77000
 868.69999	1472.48953
 868.87080	1392.61875
 869.04160	1386.47484
 869.21238	1376.23500
 869.38314	1425.38625
 869.55388	1359.85125
 869.72461	1429.48219
 869.89532	1490.92125
 870.06601	1404.90656
 870.23668	1452.00984
 870.40734	1437.67406
 870.57797	1443.81797
 870.74859	1400.81063
 870.91919	1474.53750
 871.08978	1390.57078
 871.26035	1501.16109
 871.43089	1486.82531
 871.60142	1415.14641
 871.77194	1454.05781
 871.94243	1417.19438
 872.11291	1454.05781
 872.28337	1388.52281
 872.45381	1429.48219
 872.62424	1472.48953
 872.79464	1409.00250
 872.96503	1492.96922
 873.13540	1417.19438
 873.30576	1429.48219
 873.47609	1400.81063
 873.64641	1454.05781
 873.81671	1380.33094
 873.98699	1443.81797
 874.15726	1462.24969
 874.32750	1421.29031
 874.49773	1540.07250
 874.66794	1370.09109
 874.83814	1449.96187
 875.00831	1404.90656
 875.17847	1427.43422
 875.34861	1392.61875
 875.51873	1447.91391
 875.68883	1466.34562
 875.85892	1486.82531
 876.02899	1447.91391
 876.19904	1417.19438
 876.36907	1386.47484
 876.53909	1415.14641
 876.70908	1454.05781
 876.87906	1460.20172
 877.04902	1409.00250
 877.21897	1468.39359
 877.38889	1429.48219
 877.55880	1468.39359
 877.72869	1515.49688
 877.89856	1423.33828
 878.06842	1488.87328
 878.23826	1445.86594
 878.40807	1402.85859
 878.57788	1441.77000
 878.74766	1497.06516
 878.91742	1505.25703
 879.08717	1411.05047
 879.25690	1394.66672
 879.42661	1417.19438
 879.59631	1406.95453
 879.76598	1357.80328
 879.93564	1437.67406
 880.10528	1341.41953
 880.27490	1404.90656
 880.44451	1443.81797
 880.61409	1353.70734
 880.78366	1384.42688
 880.95321	1433.57812
 881.12275	1492.96922
 881.29226	1476.58547
 881.46176	1466.34562
 881.63124	1472.48953
 881.80070	1480.68141
 881.97014	1478.63344
 882.13957	1431.53016
 882.30897	1409.00250
 882.47836	1402.85859
 882.64774	1462.24969
 882.81709	1431.53016
 882.98643	1423.33828
 883.15574	1417.19438
 883.32504	1359.85125
 883.49433	1402.85859
 883.66359	1466.34562
 883.83284	1368.04312
 884.00206	1409.00250
 884.17127	1425.38625
 884.34047	1417.19438
 884.50964	1456.10578
 884.67880	1466.34562
 884.84794	1384.42688
 885.01706	1431.53016
 885.18616	1466.34562
 885.35525	1443.81797
 885.52431	1349.61141
 885.69336	1388.52281
 885.86239	1458.15375
 886.03140	1488.87328
 886.20040	1423.33828
 886.36938	1458.15375
 886.53834	1495.01719
 886.70728	1503.20906
 886.87620	1423.33828
 887.04510	1423.33828
 887.21399	1396.71469
 887.38286	1435.62609
 887.55171	1327.08375
 887.72055	1462.24969
 887.88936	1343.46750
 888.05816	1415.14641
 888.22694	1417.19438
 888.39570	1546.21641
 888.56444	1402.85859
 888.73317	1456.10578
 888.90187	1507.30500
 889.07056	1433.57812
 889.23923	1384.42688
 889.40789	1458.15375
 889.57652	1441.77000
 889.74514	1431.53016
 889.91374	1417.19438
 890.08232	1443.81797
 890.25088	1384.42688
 890.41943	1470.44156
 890.58795	1441.77000
 890.75646	1394.66672
 890.92495	1406.95453
 891.09343	1413.09844
 891.26188	1398.76266
 891.43032	1394.66672
 891.59874	1447.91391
 891.76714	1439.72203
 891.93552	1351.65937
